# E (eV)   ldos(E)   pdos(E)   
 -20.358  0.418E-07  0.418E-07
 -20.348  0.122E-06  0.122E-06
 -20.338  0.343E-06  0.343E-06
 -20.328  0.923E-06  0.923E-06
 -20.318  0.238E-05  0.238E-05
 -20.308  0.587E-05  0.587E-05
 -20.298  0.139E-04  0.139E-04
 -20.288  0.315E-04  0.315E-04
 -20.278  0.684E-04  0.684E-04
 -20.268  0.142E-03  0.142E-03
 -20.258  0.284E-03  0.284E-03
 -20.248  0.544E-03  0.544E-03
 -20.238  0.100E-02  0.100E-02
 -20.228  0.176E-02  0.176E-02
 -20.218  0.298E-02  0.298E-02
 -20.208  0.482E-02  0.482E-02
 -20.198  0.751E-02  0.751E-02
 -20.188  0.112E-01  0.112E-01
 -20.178  0.161E-01  0.161E-01
 -20.168  0.223E-01  0.223E-01
 -20.158  0.296E-01  0.296E-01
 -20.148  0.379E-01  0.379E-01
 -20.138  0.468E-01  0.468E-01
 -20.128  0.559E-01  0.559E-01
 -20.118  0.644E-01  0.644E-01
 -20.108  0.720E-01  0.720E-01
 -20.098  0.783E-01  0.783E-01
 -20.088  0.830E-01  0.830E-01
 -20.078  0.861E-01  0.861E-01
 -20.068  0.879E-01  0.879E-01
 -20.058  0.886E-01  0.886E-01
 -20.048  0.887E-01  0.887E-01
 -20.038  0.888E-01  0.888E-01
 -20.028  0.893E-01  0.893E-01
 -20.018  0.905E-01  0.905E-01
 -20.008  0.929E-01  0.929E-01
 -19.998  0.964E-01  0.964E-01
 -19.988  0.101E+00  0.101E+00
 -19.978  0.107E+00  0.107E+00
 -19.968  0.114E+00  0.114E+00
 -19.958  0.121E+00  0.121E+00
 -19.948  0.127E+00  0.127E+00
 -19.938  0.134E+00  0.134E+00
 -19.928  0.139E+00  0.139E+00
 -19.918  0.143E+00  0.143E+00
 -19.908  0.146E+00  0.146E+00
 -19.898  0.147E+00  0.147E+00
 -19.888  0.148E+00  0.148E+00
 -19.878  0.147E+00  0.147E+00
 -19.868  0.146E+00  0.146E+00
 -19.858  0.144E+00  0.144E+00
 -19.848  0.143E+00  0.143E+00
 -19.838  0.142E+00  0.142E+00
 -19.828  0.141E+00  0.141E+00
 -19.818  0.140E+00  0.140E+00
 -19.808  0.139E+00  0.139E+00
 -19.798  0.138E+00  0.138E+00
 -19.788  0.138E+00  0.138E+00
 -19.778  0.137E+00  0.137E+00
 -19.768  0.136E+00  0.136E+00
 -19.758  0.136E+00  0.136E+00
 -19.748  0.136E+00  0.136E+00
 -19.738  0.136E+00  0.136E+00
 -19.728  0.136E+00  0.136E+00
 -19.718  0.135E+00  0.135E+00
 -19.708  0.135E+00  0.135E+00
 -19.698  0.134E+00  0.134E+00
 -19.688  0.133E+00  0.133E+00
 -19.678  0.132E+00  0.132E+00
 -19.668  0.132E+00  0.132E+00
 -19.658  0.132E+00  0.132E+00
 -19.648  0.132E+00  0.132E+00
 -19.638  0.133E+00  0.133E+00
 -19.628  0.133E+00  0.133E+00
 -19.618  0.132E+00  0.132E+00
 -19.608  0.131E+00  0.131E+00
 -19.598  0.130E+00  0.130E+00
 -19.588  0.129E+00  0.129E+00
 -19.578  0.128E+00  0.128E+00
 -19.568  0.128E+00  0.128E+00
 -19.558  0.128E+00  0.128E+00
 -19.548  0.129E+00  0.129E+00
 -19.538  0.130E+00  0.130E+00
 -19.528  0.130E+00  0.130E+00
 -19.518  0.130E+00  0.130E+00
 -19.508  0.129E+00  0.129E+00
 -19.498  0.127E+00  0.127E+00
 -19.488  0.126E+00  0.126E+00
 -19.478  0.124E+00  0.124E+00
 -19.468  0.124E+00  0.124E+00
 -19.458  0.124E+00  0.124E+00
 -19.448  0.125E+00  0.125E+00
 -19.438  0.125E+00  0.125E+00
 -19.428  0.126E+00  0.126E+00
 -19.418  0.127E+00  0.127E+00
 -19.408  0.127E+00  0.127E+00
 -19.398  0.126E+00  0.126E+00
 -19.388  0.125E+00  0.125E+00
 -19.378  0.124E+00  0.124E+00
 -19.368  0.122E+00  0.122E+00
 -19.358  0.121E+00  0.121E+00
 -19.348  0.120E+00  0.120E+00
 -19.338  0.119E+00  0.119E+00
 -19.328  0.120E+00  0.120E+00
 -19.318  0.120E+00  0.120E+00
 -19.308  0.122E+00  0.122E+00
 -19.298  0.123E+00  0.123E+00
 -19.288  0.124E+00  0.124E+00
 -19.278  0.125E+00  0.125E+00
 -19.268  0.125E+00  0.125E+00
 -19.258  0.124E+00  0.124E+00
 -19.248  0.122E+00  0.122E+00
 -19.238  0.119E+00  0.119E+00
 -19.228  0.116E+00  0.116E+00
 -19.218  0.114E+00  0.114E+00
 -19.208  0.113E+00  0.113E+00
 -19.198  0.113E+00  0.113E+00
 -19.188  0.115E+00  0.115E+00
 -19.178  0.117E+00  0.117E+00
 -19.168  0.120E+00  0.120E+00
 -19.158  0.123E+00  0.123E+00
 -19.148  0.125E+00  0.125E+00
 -19.138  0.125E+00  0.125E+00
 -19.128  0.124E+00  0.124E+00
 -19.118  0.121E+00  0.121E+00
 -19.108  0.118E+00  0.118E+00
 -19.098  0.113E+00  0.113E+00
 -19.088  0.109E+00  0.109E+00
 -19.078  0.107E+00  0.107E+00
 -19.068  0.106E+00  0.106E+00
 -19.058  0.107E+00  0.107E+00
 -19.048  0.110E+00  0.110E+00
 -19.038  0.115E+00  0.115E+00
 -19.028  0.120E+00  0.120E+00
 -19.018  0.124E+00  0.124E+00
 -19.008  0.126E+00  0.126E+00
 -18.998  0.127E+00  0.127E+00
 -18.988  0.125E+00  0.125E+00
 -18.978  0.121E+00  0.121E+00
 -18.968  0.115E+00  0.115E+00
 -18.958  0.109E+00  0.109E+00
 -18.948  0.104E+00  0.104E+00
 -18.938  0.101E+00  0.101E+00
 -18.928  0.993E-01  0.993E-01
 -18.918  0.100E+00  0.100E+00
 -18.908  0.104E+00  0.104E+00
 -18.898  0.109E+00  0.109E+00
 -18.888  0.115E+00  0.115E+00
 -18.878  0.120E+00  0.120E+00
 -18.868  0.125E+00  0.125E+00
 -18.858  0.128E+00  0.128E+00
 -18.848  0.127E+00  0.127E+00
 -18.838  0.124E+00  0.124E+00
 -18.828  0.119E+00  0.119E+00
 -18.818  0.112E+00  0.112E+00
 -18.808  0.105E+00  0.105E+00
 -18.798  0.990E-01  0.990E-01
 -18.788  0.947E-01  0.947E-01
 -18.778  0.931E-01  0.931E-01
 -18.768  0.943E-01  0.943E-01
 -18.758  0.980E-01  0.980E-01
 -18.748  0.104E+00  0.104E+00
 -18.738  0.110E+00  0.110E+00
 -18.728  0.117E+00  0.117E+00
 -18.718  0.122E+00  0.122E+00
 -18.708  0.126E+00  0.126E+00
 -18.698  0.127E+00  0.127E+00
 -18.688  0.126E+00  0.126E+00
 -18.678  0.122E+00  0.122E+00
 -18.668  0.116E+00  0.116E+00
 -18.658  0.109E+00  0.109E+00
 -18.648  0.101E+00  0.101E+00
 -18.638  0.950E-01  0.950E-01
 -18.628  0.904E-01  0.904E-01
 -18.618  0.884E-01  0.884E-01
 -18.608  0.891E-01  0.891E-01
 -18.598  0.926E-01  0.926E-01
 -18.588  0.983E-01  0.983E-01
 -18.578  0.105E+00  0.105E+00
 -18.568  0.113E+00  0.113E+00
 -18.558  0.120E+00  0.120E+00
 -18.548  0.124E+00  0.124E+00
 -18.538  0.127E+00  0.127E+00
 -18.528  0.126E+00  0.126E+00
 -18.518  0.123E+00  0.123E+00
 -18.508  0.117E+00  0.117E+00
 -18.498  0.110E+00  0.110E+00
 -18.488  0.103E+00  0.103E+00
 -18.478  0.964E-01  0.964E-01
 -18.468  0.909E-01  0.909E-01
 -18.458  0.873E-01  0.873E-01
 -18.448  0.858E-01  0.858E-01
 -18.438  0.867E-01  0.867E-01
 -18.428  0.898E-01  0.898E-01
 -18.418  0.948E-01  0.948E-01
 -18.408  0.101E+00  0.101E+00
 -18.398  0.108E+00  0.108E+00
 -18.388  0.115E+00  0.115E+00
 -18.378  0.120E+00  0.120E+00
 -18.368  0.124E+00  0.124E+00
 -18.358  0.125E+00  0.125E+00
 -18.348  0.123E+00  0.123E+00
 -18.338  0.119E+00  0.119E+00
 -18.328  0.113E+00  0.113E+00
 -18.318  0.106E+00  0.106E+00
 -18.308  0.984E-01  0.984E-01
 -18.298  0.919E-01  0.919E-01
 -18.288  0.868E-01  0.868E-01
 -18.278  0.838E-01  0.838E-01
 -18.268  0.830E-01  0.830E-01
 -18.258  0.845E-01  0.845E-01
 -18.248  0.880E-01  0.880E-01
 -18.238  0.932E-01  0.932E-01
 -18.228  0.993E-01  0.993E-01
 -18.218  0.106E+00  0.106E+00
 -18.208  0.112E+00  0.112E+00
 -18.198  0.117E+00  0.117E+00
 -18.188  0.120E+00  0.120E+00
 -18.178  0.121E+00  0.121E+00
 -18.168  0.120E+00  0.120E+00
 -18.158  0.117E+00  0.117E+00
 -18.148  0.113E+00  0.113E+00
 -18.138  0.107E+00  0.107E+00
 -18.128  0.101E+00  0.101E+00
 -18.118  0.948E-01  0.948E-01
 -18.108  0.895E-01  0.895E-01
 -18.098  0.854E-01  0.854E-01
 -18.088  0.827E-01  0.827E-01
 -18.078  0.819E-01  0.819E-01
 -18.068  0.829E-01  0.829E-01
 -18.058  0.858E-01  0.858E-01
 -18.048  0.904E-01  0.904E-01
 -18.038  0.961E-01  0.961E-01
 -18.028  0.103E+00  0.103E+00
 -18.018  0.109E+00  0.109E+00
 -18.008  0.114E+00  0.114E+00
 -17.998  0.118E+00  0.118E+00
 -17.988  0.119E+00  0.119E+00
 -17.978  0.118E+00  0.118E+00
 -17.968  0.115E+00  0.115E+00
 -17.958  0.111E+00  0.111E+00
 -17.948  0.106E+00  0.106E+00
 -17.938  0.997E-01  0.997E-01
 -17.928  0.941E-01  0.941E-01
 -17.918  0.894E-01  0.894E-01
 -17.908  0.859E-01  0.859E-01
 -17.898  0.838E-01  0.838E-01
 -17.888  0.831E-01  0.831E-01
 -17.878  0.836E-01  0.836E-01
 -17.868  0.852E-01  0.852E-01
 -17.858  0.876E-01  0.876E-01
 -17.848  0.908E-01  0.908E-01
 -17.838  0.945E-01  0.945E-01
 -17.828  0.987E-01  0.987E-01
 -17.818  0.103E+00  0.103E+00
 -17.808  0.108E+00  0.108E+00
 -17.798  0.111E+00  0.111E+00
 -17.788  0.114E+00  0.114E+00
 -17.778  0.115E+00  0.115E+00
 -17.768  0.115E+00  0.115E+00
 -17.758  0.112E+00  0.112E+00
 -17.748  0.108E+00  0.108E+00
 -17.738  0.102E+00  0.102E+00
 -17.728  0.956E-01  0.956E-01
 -17.718  0.896E-01  0.896E-01
 -17.708  0.846E-01  0.846E-01
 -17.698  0.812E-01  0.812E-01
 -17.688  0.798E-01  0.798E-01
 -17.678  0.803E-01  0.803E-01
 -17.668  0.825E-01  0.825E-01
 -17.658  0.859E-01  0.859E-01
 -17.648  0.900E-01  0.900E-01
 -17.638  0.941E-01  0.941E-01
 -17.628  0.978E-01  0.978E-01
 -17.618  0.101E+00  0.101E+00
 -17.608  0.103E+00  0.103E+00
 -17.598  0.104E+00  0.104E+00
 -17.588  0.105E+00  0.105E+00
 -17.578  0.106E+00  0.106E+00
 -17.568  0.107E+00  0.107E+00
 -17.558  0.107E+00  0.107E+00
 -17.548  0.107E+00  0.107E+00
 -17.538  0.106E+00  0.106E+00
 -17.528  0.103E+00  0.103E+00
 -17.518  0.994E-01  0.994E-01
 -17.508  0.948E-01  0.948E-01
 -17.498  0.897E-01  0.897E-01
 -17.488  0.850E-01  0.850E-01
 -17.478  0.812E-01  0.812E-01
 -17.468  0.789E-01  0.789E-01
 -17.458  0.784E-01  0.784E-01
 -17.448  0.798E-01  0.798E-01
 -17.438  0.829E-01  0.829E-01
 -17.428  0.872E-01  0.872E-01
 -17.418  0.922E-01  0.922E-01
 -17.408  0.971E-01  0.971E-01
 -17.398  0.101E+00  0.101E+00
 -17.388  0.104E+00  0.104E+00
 -17.378  0.106E+00  0.106E+00
 -17.368  0.106E+00  0.106E+00
 -17.358  0.105E+00  0.105E+00
 -17.348  0.104E+00  0.104E+00
 -17.338  0.102E+00  0.102E+00
 -17.328  0.996E-01  0.996E-01
 -17.318  0.977E-01  0.977E-01
 -17.308  0.960E-01  0.960E-01
 -17.298  0.944E-01  0.944E-01
 -17.288  0.928E-01  0.928E-01
 -17.278  0.910E-01  0.910E-01
 -17.268  0.891E-01  0.891E-01
 -17.258  0.871E-01  0.871E-01
 -17.248  0.853E-01  0.853E-01
 -17.238  0.839E-01  0.839E-01
 -17.228  0.830E-01  0.830E-01
 -17.218  0.830E-01  0.830E-01
 -17.208  0.837E-01  0.837E-01
 -17.198  0.854E-01  0.854E-01
 -17.188  0.878E-01  0.878E-01
 -17.178  0.909E-01  0.909E-01
 -17.168  0.945E-01  0.945E-01
 -17.158  0.982E-01  0.982E-01
 -17.148  0.102E+00  0.102E+00
 -17.138  0.104E+00  0.104E+00
 -17.128  0.106E+00  0.106E+00
 -17.118  0.106E+00  0.106E+00
 -17.108  0.105E+00  0.105E+00
 -17.098  0.102E+00  0.102E+00
 -17.088  0.982E-01  0.982E-01
 -17.078  0.937E-01  0.937E-01
 -17.068  0.894E-01  0.894E-01
 -17.058  0.858E-01  0.858E-01
 -17.048  0.834E-01  0.834E-01
 -17.038  0.825E-01  0.825E-01
 -17.028  0.829E-01  0.829E-01
 -17.018  0.843E-01  0.843E-01
 -17.008  0.863E-01  0.863E-01
 -16.998  0.883E-01  0.883E-01
 -16.988  0.900E-01  0.900E-01
 -16.978  0.910E-01  0.910E-01
 -16.968  0.911E-01  0.911E-01
 -16.958  0.906E-01  0.906E-01
 -16.948  0.897E-01  0.897E-01
 -16.938  0.889E-01  0.889E-01
 -16.928  0.887E-01  0.887E-01
 -16.918  0.894E-01  0.894E-01
 -16.908  0.913E-01  0.913E-01
 -16.898  0.943E-01  0.943E-01
 -16.888  0.978E-01  0.978E-01
 -16.878  0.101E+00  0.101E+00
 -16.868  0.104E+00  0.104E+00
 -16.858  0.105E+00  0.105E+00
 -16.848  0.104E+00  0.104E+00
 -16.838  0.100E+00  0.100E+00
 -16.828  0.954E-01  0.954E-01
 -16.818  0.897E-01  0.897E-01
 -16.808  0.841E-01  0.841E-01
 -16.798  0.796E-01  0.796E-01
 -16.788  0.770E-01  0.770E-01
 -16.778  0.766E-01  0.766E-01
 -16.768  0.784E-01  0.784E-01
 -16.758  0.819E-01  0.819E-01
 -16.748  0.863E-01  0.863E-01
 -16.738  0.907E-01  0.907E-01
 -16.728  0.942E-01  0.942E-01
 -16.718  0.963E-01  0.963E-01
 -16.708  0.966E-01  0.966E-01
 -16.698  0.954E-01  0.954E-01
 -16.688  0.932E-01  0.932E-01
 -16.678  0.906E-01  0.906E-01
 -16.668  0.884E-01  0.884E-01
 -16.658  0.873E-01  0.873E-01
 -16.648  0.875E-01  0.875E-01
 -16.638  0.891E-01  0.891E-01
 -16.628  0.917E-01  0.917E-01
 -16.618  0.946E-01  0.946E-01
 -16.608  0.973E-01  0.973E-01
 -16.598  0.991E-01  0.991E-01
 -16.588  0.995E-01  0.995E-01
 -16.578  0.983E-01  0.983E-01
 -16.568  0.957E-01  0.957E-01
 -16.558  0.919E-01  0.919E-01
 -16.548  0.877E-01  0.877E-01
 -16.538  0.837E-01  0.837E-01
 -16.528  0.805E-01  0.805E-01
 -16.518  0.787E-01  0.787E-01
 -16.508  0.784E-01  0.784E-01
 -16.498  0.797E-01  0.797E-01
 -16.488  0.823E-01  0.823E-01
 -16.478  0.855E-01  0.855E-01
 -16.468  0.889E-01  0.889E-01
 -16.458  0.918E-01  0.918E-01
 -16.448  0.939E-01  0.939E-01
 -16.438  0.950E-01  0.950E-01
 -16.428  0.950E-01  0.950E-01
 -16.418  0.942E-01  0.942E-01
 -16.408  0.929E-01  0.929E-01
 -16.398  0.917E-01  0.917E-01
 -16.388  0.907E-01  0.907E-01
 -16.378  0.901E-01  0.901E-01
 -16.368  0.899E-01  0.899E-01
 -16.358  0.900E-01  0.900E-01
 -16.348  0.902E-01  0.902E-01
 -16.338  0.904E-01  0.904E-01
 -16.328  0.906E-01  0.906E-01
 -16.318  0.907E-01  0.907E-01
 -16.308  0.908E-01  0.908E-01
 -16.298  0.909E-01  0.909E-01
 -16.288  0.908E-01  0.908E-01
 -16.278  0.906E-01  0.906E-01
 -16.268  0.901E-01  0.901E-01
 -16.258  0.892E-01  0.892E-01
 -16.248  0.880E-01  0.880E-01
 -16.238  0.864E-01  0.864E-01
 -16.228  0.847E-01  0.847E-01
 -16.218  0.832E-01  0.832E-01
 -16.208  0.822E-01  0.822E-01
 -16.198  0.819E-01  0.819E-01
 -16.188  0.826E-01  0.826E-01
 -16.178  0.842E-01  0.842E-01
 -16.168  0.867E-01  0.867E-01
 -16.158  0.896E-01  0.896E-01
 -16.148  0.927E-01  0.927E-01
 -16.138  0.953E-01  0.953E-01
 -16.128  0.971E-01  0.971E-01
 -16.118  0.978E-01  0.978E-01
 -16.108  0.974E-01  0.974E-01
 -16.098  0.960E-01  0.960E-01
 -16.088  0.937E-01  0.937E-01
 -16.078  0.909E-01  0.909E-01
 -16.068  0.880E-01  0.880E-01
 -16.058  0.855E-01  0.855E-01
 -16.048  0.838E-01  0.838E-01
 -16.038  0.831E-01  0.831E-01
 -16.028  0.838E-01  0.838E-01
 -16.018  0.857E-01  0.857E-01
 -16.008  0.884E-01  0.884E-01
 -15.998  0.914E-01  0.914E-01
 -15.988  0.941E-01  0.941E-01
 -15.978  0.957E-01  0.957E-01
 -15.968  0.958E-01  0.958E-01
 -15.958  0.941E-01  0.941E-01
 -15.948  0.909E-01  0.909E-01
 -15.938  0.867E-01  0.867E-01
 -15.928  0.824E-01  0.824E-01
 -15.918  0.788E-01  0.788E-01
 -15.908  0.768E-01  0.768E-01
 -15.898  0.769E-01  0.769E-01
 -15.888  0.793E-01  0.793E-01
 -15.878  0.835E-01  0.835E-01
 -15.868  0.889E-01  0.889E-01
 -15.858  0.945E-01  0.945E-01
 -15.848  0.993E-01  0.993E-01
 -15.838  0.102E+00  0.102E+00
 -15.828  0.103E+00  0.103E+00
 -15.818  0.102E+00  0.102E+00
 -15.808  0.991E-01  0.991E-01
 -15.798  0.949E-01  0.949E-01
 -15.788  0.905E-01  0.905E-01
 -15.778  0.864E-01  0.864E-01
 -15.768  0.834E-01  0.834E-01
 -15.758  0.819E-01  0.819E-01
 -15.748  0.820E-01  0.820E-01
 -15.738  0.836E-01  0.836E-01
 -15.728  0.862E-01  0.862E-01
 -15.718  0.895E-01  0.895E-01
 -15.708  0.928E-01  0.928E-01
 -15.698  0.954E-01  0.954E-01
 -15.688  0.968E-01  0.968E-01
 -15.678  0.967E-01  0.967E-01
 -15.668  0.950E-01  0.950E-01
 -15.658  0.918E-01  0.918E-01
 -15.648  0.877E-01  0.877E-01
 -15.638  0.835E-01  0.835E-01
 -15.628  0.800E-01  0.800E-01
 -15.618  0.781E-01  0.781E-01
 -15.608  0.783E-01  0.783E-01
 -15.598  0.806E-01  0.806E-01
 -15.588  0.849E-01  0.849E-01
 -15.578  0.905E-01  0.905E-01
 -15.568  0.962E-01  0.962E-01
 -15.558  0.101E+00  0.101E+00
 -15.548  0.104E+00  0.104E+00
 -15.538  0.105E+00  0.105E+00
 -15.528  0.104E+00  0.104E+00
 -15.518  0.101E+00  0.101E+00
 -15.508  0.974E-01  0.974E-01
 -15.498  0.934E-01  0.934E-01
 -15.488  0.900E-01  0.900E-01
 -15.478  0.878E-01  0.878E-01
 -15.468  0.869E-01  0.869E-01
 -15.458  0.872E-01  0.872E-01
 -15.448  0.885E-01  0.885E-01
 -15.438  0.901E-01  0.901E-01
 -15.428  0.919E-01  0.919E-01
 -15.418  0.934E-01  0.934E-01
 -15.408  0.944E-01  0.944E-01
 -15.398  0.948E-01  0.948E-01
 -15.388  0.945E-01  0.945E-01
 -15.378  0.936E-01  0.936E-01
 -15.368  0.920E-01  0.920E-01
 -15.358  0.902E-01  0.902E-01
 -15.348  0.883E-01  0.883E-01
 -15.338  0.867E-01  0.867E-01
 -15.328  0.860E-01  0.860E-01
 -15.318  0.866E-01  0.866E-01
 -15.308  0.886E-01  0.886E-01
 -15.298  0.919E-01  0.919E-01
 -15.288  0.961E-01  0.961E-01
 -15.278  0.101E+00  0.101E+00
 -15.268  0.105E+00  0.105E+00
 -15.258  0.107E+00  0.107E+00
 -15.248  0.108E+00  0.108E+00
 -15.238  0.108E+00  0.108E+00
 -15.228  0.106E+00  0.106E+00
 -15.218  0.103E+00  0.103E+00
 -15.208  0.100E+00  0.100E+00
 -15.198  0.982E-01  0.982E-01
 -15.188  0.969E-01  0.969E-01
 -15.178  0.967E-01  0.967E-01
 -15.168  0.974E-01  0.974E-01
 -15.158  0.985E-01  0.985E-01
 -15.148  0.997E-01  0.997E-01
 -15.138  0.101E+00  0.101E+00
 -15.128  0.101E+00  0.101E+00
 -15.118  0.101E+00  0.101E+00
 -15.108  0.100E+00  0.100E+00
 -15.098  0.995E-01  0.995E-01
 -15.088  0.984E-01  0.984E-01
 -15.078  0.975E-01  0.975E-01
 -15.068  0.970E-01  0.970E-01
 -15.058  0.971E-01  0.971E-01
 -15.048  0.982E-01  0.982E-01
 -15.038  0.101E+00  0.101E+00
 -15.028  0.104E+00  0.104E+00
 -15.018  0.109E+00  0.109E+00
 -15.008  0.114E+00  0.114E+00
 -14.998  0.119E+00  0.119E+00
 -14.988  0.124E+00  0.124E+00
 -14.978  0.127E+00  0.127E+00
 -14.968  0.128E+00  0.128E+00
 -14.958  0.129E+00  0.129E+00
 -14.948  0.129E+00  0.129E+00
 -14.938  0.129E+00  0.129E+00
 -14.928  0.129E+00  0.129E+00
 -14.918  0.131E+00  0.131E+00
 -14.908  0.135E+00  0.135E+00
 -14.898  0.138E+00  0.138E+00
 -14.888  0.142E+00  0.142E+00
 -14.878  0.145E+00  0.145E+00
 -14.868  0.147E+00  0.147E+00
 -14.858  0.147E+00  0.147E+00
 -14.848  0.144E+00  0.144E+00
 -14.838  0.140E+00  0.140E+00
 -14.828  0.135E+00  0.135E+00
 -14.818  0.129E+00  0.129E+00
 -14.808  0.123E+00  0.123E+00
 -14.798  0.117E+00  0.117E+00
 -14.788  0.112E+00  0.112E+00
 -14.778  0.109E+00  0.109E+00
 -14.768  0.106E+00  0.106E+00
 -14.758  0.105E+00  0.105E+00
 -14.748  0.104E+00  0.104E+00
 -14.738  0.105E+00  0.105E+00
 -14.728  0.106E+00  0.106E+00
 -14.718  0.106E+00  0.106E+00
 -14.708  0.105E+00  0.105E+00
 -14.698  0.103E+00  0.103E+00
 -14.688  0.100E+00  0.100E+00
 -14.678  0.958E-01  0.958E-01
 -14.668  0.912E-01  0.912E-01
 -14.658  0.869E-01  0.869E-01
 -14.648  0.838E-01  0.838E-01
 -14.638  0.821E-01  0.821E-01
 -14.628  0.819E-01  0.819E-01
 -14.618  0.827E-01  0.827E-01
 -14.608  0.839E-01  0.839E-01
 -14.598  0.847E-01  0.847E-01
 -14.588  0.845E-01  0.845E-01
 -14.578  0.828E-01  0.828E-01
 -14.568  0.795E-01  0.795E-01
 -14.558  0.746E-01  0.746E-01
 -14.548  0.687E-01  0.687E-01
 -14.538  0.624E-01  0.624E-01
 -14.528  0.565E-01  0.565E-01
 -14.518  0.515E-01  0.515E-01
 -14.508  0.481E-01  0.481E-01
 -14.498  0.465E-01  0.465E-01
 -14.488  0.469E-01  0.469E-01
 -14.478  0.491E-01  0.491E-01
 -14.468  0.528E-01  0.528E-01
 -14.458  0.575E-01  0.575E-01
 -14.448  0.627E-01  0.627E-01
 -14.438  0.678E-01  0.678E-01
 -14.428  0.723E-01  0.723E-01
 -14.418  0.756E-01  0.756E-01
 -14.408  0.775E-01  0.775E-01
 -14.398  0.777E-01  0.777E-01
 -14.388  0.763E-01  0.763E-01
 -14.378  0.736E-01  0.736E-01
 -14.368  0.699E-01  0.699E-01
 -14.358  0.657E-01  0.657E-01
 -14.348  0.616E-01  0.616E-01
 -14.338  0.578E-01  0.578E-01
 -14.328  0.545E-01  0.545E-01
 -14.318  0.515E-01  0.515E-01
 -14.308  0.487E-01  0.487E-01
 -14.298  0.456E-01  0.456E-01
 -14.288  0.420E-01  0.420E-01
 -14.278  0.379E-01  0.379E-01
 -14.268  0.337E-01  0.337E-01
 -14.258  0.297E-01  0.297E-01
 -14.248  0.267E-01  0.267E-01
 -14.238  0.253E-01  0.253E-01
 -14.228  0.261E-01  0.261E-01
 -14.218  0.292E-01  0.292E-01
 -14.208  0.345E-01  0.345E-01
 -14.198  0.413E-01  0.413E-01
 -14.188  0.487E-01  0.487E-01
 -14.178  0.557E-01  0.557E-01
 -14.168  0.613E-01  0.613E-01
 -14.158  0.645E-01  0.645E-01
 -14.148  0.651E-01  0.651E-01
 -14.138  0.630E-01  0.630E-01
 -14.128  0.589E-01  0.589E-01
 -14.118  0.535E-01  0.535E-01
 -14.108  0.478E-01  0.478E-01
 -14.098  0.428E-01  0.428E-01
 -14.088  0.390E-01  0.390E-01
 -14.078  0.364E-01  0.364E-01
 -14.068  0.349E-01  0.349E-01
 -14.058  0.339E-01  0.339E-01
 -14.048  0.328E-01  0.328E-01
 -14.038  0.311E-01  0.311E-01
 -14.028  0.288E-01  0.288E-01
 -14.018  0.259E-01  0.259E-01
 -14.008  0.230E-01  0.230E-01
 -13.998  0.205E-01  0.205E-01
 -13.988  0.191E-01  0.191E-01
 -13.978  0.191E-01  0.191E-01
 -13.968  0.205E-01  0.205E-01
 -13.958  0.232E-01  0.232E-01
 -13.948  0.270E-01  0.270E-01
 -13.938  0.312E-01  0.312E-01
 -13.928  0.354E-01  0.354E-01
