# E (eV)   ldos(E)   pdos(E)   
 -21.530  0.769E-07  0.769E-07
 -21.520  0.225E-06  0.225E-06
 -21.510  0.631E-06  0.631E-06
 -21.500  0.170E-05  0.170E-05
 -21.490  0.437E-05  0.437E-05
 -21.480  0.108E-04  0.108E-04
 -21.470  0.255E-04  0.255E-04
 -21.460  0.578E-04  0.578E-04
 -21.450  0.125E-03  0.125E-03
 -21.440  0.261E-03  0.261E-03
 -21.430  0.522E-03  0.522E-03
 -21.420  0.999E-03  0.999E-03
 -21.410  0.183E-02  0.183E-02
 -21.400  0.323E-02  0.323E-02
 -21.390  0.545E-02  0.545E-02
 -21.380  0.884E-02  0.884E-02
 -21.370  0.138E-01  0.138E-01
 -21.360  0.206E-01  0.206E-01
 -21.350  0.295E-01  0.295E-01
 -21.340  0.408E-01  0.408E-01
 -21.330  0.542E-01  0.542E-01
 -21.320  0.694E-01  0.694E-01
 -21.310  0.856E-01  0.856E-01
 -21.300  0.102E+00  0.102E+00
 -21.290  0.118E+00  0.118E+00
 -21.280  0.131E+00  0.131E+00
 -21.270  0.143E+00  0.143E+00
 -21.260  0.151E+00  0.151E+00
 -21.250  0.156E+00  0.156E+00
 -21.240  0.159E+00  0.159E+00
 -21.230  0.159E+00  0.159E+00
 -21.220  0.158E+00  0.158E+00
 -21.210  0.156E+00  0.156E+00
 -21.200  0.153E+00  0.153E+00
 -21.190  0.151E+00  0.151E+00
 -21.180  0.148E+00  0.148E+00
 -21.170  0.146E+00  0.146E+00
 -21.160  0.145E+00  0.145E+00
 -21.150  0.144E+00  0.144E+00
 -21.140  0.143E+00  0.143E+00
 -21.130  0.142E+00  0.142E+00
 -21.120  0.141E+00  0.141E+00
 -21.110  0.141E+00  0.141E+00
 -21.100  0.140E+00  0.140E+00
 -21.090  0.139E+00  0.139E+00
 -21.080  0.139E+00  0.139E+00
 -21.070  0.139E+00  0.139E+00
 -21.060  0.139E+00  0.139E+00
 -21.050  0.139E+00  0.139E+00
 -21.040  0.139E+00  0.139E+00
 -21.030  0.138E+00  0.138E+00
 -21.020  0.137E+00  0.137E+00
 -21.010  0.135E+00  0.135E+00
 -21.000  0.134E+00  0.134E+00
 -20.990  0.134E+00  0.134E+00
 -20.980  0.134E+00  0.134E+00
 -20.970  0.135E+00  0.135E+00
 -20.960  0.137E+00  0.137E+00
 -20.950  0.137E+00  0.137E+00
 -20.940  0.137E+00  0.137E+00
 -20.930  0.135E+00  0.135E+00
 -20.920  0.133E+00  0.133E+00
 -20.910  0.130E+00  0.130E+00
 -20.900  0.128E+00  0.128E+00
 -20.890  0.127E+00  0.127E+00
 -20.880  0.128E+00  0.128E+00
 -20.870  0.130E+00  0.130E+00
 -20.860  0.133E+00  0.133E+00
 -20.850  0.136E+00  0.136E+00
 -20.840  0.137E+00  0.137E+00
 -20.830  0.136E+00  0.136E+00
 -20.820  0.134E+00  0.134E+00
 -20.810  0.129E+00  0.129E+00
 -20.800  0.125E+00  0.125E+00
 -20.790  0.121E+00  0.121E+00
 -20.780  0.119E+00  0.119E+00
 -20.770  0.119E+00  0.119E+00
 -20.760  0.122E+00  0.122E+00
 -20.750  0.126E+00  0.126E+00
 -20.740  0.132E+00  0.132E+00
 -20.730  0.136E+00  0.136E+00
 -20.720  0.138E+00  0.138E+00
 -20.710  0.138E+00  0.138E+00
 -20.700  0.135E+00  0.135E+00
 -20.690  0.129E+00  0.129E+00
 -20.680  0.122E+00  0.122E+00
 -20.670  0.116E+00  0.116E+00
 -20.660  0.111E+00  0.111E+00
 -20.650  0.109E+00  0.109E+00
 -20.640  0.111E+00  0.111E+00
 -20.630  0.115E+00  0.115E+00
 -20.620  0.122E+00  0.122E+00
 -20.610  0.129E+00  0.129E+00
 -20.600  0.135E+00  0.135E+00
 -20.590  0.139E+00  0.139E+00
 -20.580  0.140E+00  0.140E+00
 -20.570  0.137E+00  0.137E+00
 -20.560  0.132E+00  0.132E+00
 -20.550  0.124E+00  0.124E+00
 -20.540  0.116E+00  0.116E+00
 -20.530  0.109E+00  0.109E+00
 -20.520  0.103E+00  0.103E+00
 -20.510  0.101E+00  0.101E+00
 -20.500  0.102E+00  0.102E+00
 -20.490  0.106E+00  0.106E+00
 -20.480  0.113E+00  0.113E+00
 -20.470  0.122E+00  0.122E+00
 -20.460  0.131E+00  0.131E+00
 -20.450  0.137E+00  0.137E+00
 -20.440  0.141E+00  0.141E+00
 -20.430  0.141E+00  0.141E+00
 -20.420  0.137E+00  0.137E+00
 -20.410  0.130E+00  0.130E+00
 -20.400  0.121E+00  0.121E+00
 -20.390  0.112E+00  0.112E+00
 -20.380  0.103E+00  0.103E+00
 -20.370  0.974E-01  0.974E-01
 -20.360  0.941E-01  0.941E-01
 -20.350  0.941E-01  0.941E-01
 -20.340  0.971E-01  0.971E-01
 -20.330  0.103E+00  0.103E+00
 -20.320  0.111E+00  0.111E+00
 -20.310  0.120E+00  0.120E+00
 -20.300  0.129E+00  0.129E+00
 -20.290  0.136E+00  0.136E+00
 -20.280  0.141E+00  0.141E+00
 -20.270  0.142E+00  0.142E+00
 -20.260  0.139E+00  0.139E+00
 -20.250  0.133E+00  0.133E+00
 -20.240  0.124E+00  0.124E+00
 -20.230  0.113E+00  0.113E+00
 -20.220  0.102E+00  0.102E+00
 -20.210  0.936E-01  0.936E-01
 -20.200  0.878E-01  0.878E-01
 -20.190  0.855E-01  0.855E-01
 -20.180  0.870E-01  0.870E-01
 -20.170  0.918E-01  0.918E-01
 -20.160  0.991E-01  0.991E-01
 -20.150  0.108E+00  0.108E+00
 -20.140  0.117E+00  0.117E+00
 -20.130  0.126E+00  0.126E+00
 -20.120  0.133E+00  0.133E+00
 -20.110  0.137E+00  0.137E+00
 -20.100  0.139E+00  0.139E+00
 -20.090  0.138E+00  0.138E+00
 -20.080  0.134E+00  0.134E+00
 -20.070  0.128E+00  0.128E+00
 -20.060  0.120E+00  0.120E+00
 -20.050  0.110E+00  0.110E+00
 -20.040  0.100E+00  0.100E+00
 -20.030  0.909E-01  0.909E-01
 -20.020  0.838E-01  0.838E-01
 -20.010  0.795E-01  0.795E-01
 -20.000  0.787E-01  0.787E-01
 -19.990  0.817E-01  0.817E-01
 -19.980  0.882E-01  0.882E-01
 -19.970  0.976E-01  0.976E-01
 -19.960  0.109E+00  0.109E+00
 -19.950  0.120E+00  0.120E+00
 -19.940  0.130E+00  0.130E+00
 -19.930  0.137E+00  0.137E+00
 -19.920  0.140E+00  0.140E+00
 -19.910  0.140E+00  0.140E+00
 -19.900  0.136E+00  0.136E+00
 -19.890  0.130E+00  0.130E+00
 -19.880  0.122E+00  0.122E+00
 -19.870  0.113E+00  0.113E+00
 -19.860  0.105E+00  0.105E+00
 -19.850  0.973E-01  0.973E-01
 -19.840  0.909E-01  0.909E-01
 -19.830  0.856E-01  0.856E-01
 -19.820  0.816E-01  0.816E-01
 -19.810  0.790E-01  0.790E-01
 -19.800  0.784E-01  0.784E-01
 -19.790  0.801E-01  0.801E-01
 -19.780  0.846E-01  0.846E-01
 -19.770  0.919E-01  0.919E-01
 -19.760  0.102E+00  0.102E+00
 -19.750  0.113E+00  0.113E+00
 -19.740  0.124E+00  0.124E+00
 -19.730  0.134E+00  0.134E+00
 -19.720  0.141E+00  0.141E+00
 -19.710  0.144E+00  0.144E+00
 -19.700  0.142E+00  0.142E+00
 -19.690  0.136E+00  0.136E+00
 -19.680  0.126E+00  0.126E+00
 -19.670  0.114E+00  0.114E+00
 -19.660  0.103E+00  0.103E+00
 -19.650  0.921E-01  0.921E-01
 -19.640  0.842E-01  0.842E-01
 -19.630  0.791E-01  0.791E-01
 -19.620  0.767E-01  0.767E-01
 -19.610  0.765E-01  0.765E-01
 -19.600  0.778E-01  0.778E-01
 -19.590  0.801E-01  0.801E-01
 -19.580  0.833E-01  0.833E-01
 -19.570  0.873E-01  0.873E-01
 -19.560  0.923E-01  0.923E-01
 -19.550  0.986E-01  0.986E-01
 -19.540  0.106E+00  0.106E+00
 -19.530  0.114E+00  0.114E+00
 -19.520  0.122E+00  0.122E+00
 -19.510  0.130E+00  0.130E+00
 -19.500  0.135E+00  0.135E+00
 -19.490  0.138E+00  0.138E+00
 -19.480  0.137E+00  0.137E+00
 -19.470  0.133E+00  0.133E+00
 -19.460  0.126E+00  0.126E+00
 -19.450  0.116E+00  0.116E+00
 -19.440  0.105E+00  0.105E+00
 -19.430  0.936E-01  0.936E-01
 -19.420  0.828E-01  0.828E-01
 -19.410  0.741E-01  0.741E-01
 -19.400  0.682E-01  0.682E-01
 -19.390  0.655E-01  0.655E-01
 -19.380  0.661E-01  0.661E-01
 -19.370  0.697E-01  0.697E-01
 -19.360  0.754E-01  0.754E-01
 -19.350  0.827E-01  0.827E-01
 -19.340  0.908E-01  0.908E-01
 -19.330  0.992E-01  0.992E-01
 -19.320  0.107E+00  0.107E+00
 -19.310  0.115E+00  0.115E+00
 -19.300  0.122E+00  0.122E+00
 -19.290  0.126E+00  0.126E+00
 -19.280  0.129E+00  0.129E+00
 -19.270  0.130E+00  0.130E+00
 -19.260  0.129E+00  0.129E+00
 -19.250  0.126E+00  0.126E+00
 -19.240  0.121E+00  0.121E+00
 -19.230  0.115E+00  0.115E+00
 -19.220  0.110E+00  0.110E+00
 -19.210  0.104E+00  0.104E+00
 -19.200  0.978E-01  0.978E-01
 -19.190  0.915E-01  0.915E-01
 -19.180  0.849E-01  0.849E-01
 -19.170  0.781E-01  0.781E-01
 -19.160  0.716E-01  0.716E-01
 -19.150  0.662E-01  0.662E-01
 -19.140  0.628E-01  0.628E-01
 -19.130  0.622E-01  0.622E-01
 -19.120  0.650E-01  0.650E-01
 -19.110  0.713E-01  0.713E-01
 -19.100  0.806E-01  0.806E-01
 -19.090  0.920E-01  0.920E-01
 -19.080  0.104E+00  0.104E+00
 -19.070  0.116E+00  0.116E+00
 -19.060  0.126E+00  0.126E+00
 -19.050  0.134E+00  0.134E+00
 -19.040  0.138E+00  0.138E+00
 -19.030  0.138E+00  0.138E+00
 -19.020  0.134E+00  0.134E+00
 -19.010  0.128E+00  0.128E+00
 -19.000  0.119E+00  0.119E+00
 -18.990  0.109E+00  0.109E+00
 -18.980  0.995E-01  0.995E-01
 -18.970  0.913E-01  0.913E-01
 -18.960  0.852E-01  0.852E-01
 -18.950  0.815E-01  0.815E-01
 -18.940  0.798E-01  0.798E-01
 -18.930  0.794E-01  0.794E-01
 -18.920  0.794E-01  0.794E-01
 -18.910  0.789E-01  0.789E-01
 -18.900  0.774E-01  0.774E-01
 -18.890  0.749E-01  0.749E-01
 -18.880  0.720E-01  0.720E-01
 -18.870  0.698E-01  0.698E-01
 -18.860  0.695E-01  0.695E-01
 -18.850  0.722E-01  0.722E-01
 -18.840  0.783E-01  0.783E-01
 -18.830  0.877E-01  0.877E-01
 -18.820  0.995E-01  0.995E-01
 -18.810  0.112E+00  0.112E+00
 -18.800  0.124E+00  0.124E+00
 -18.790  0.134E+00  0.134E+00
 -18.780  0.139E+00  0.139E+00
 -18.770  0.141E+00  0.141E+00
 -18.760  0.138E+00  0.138E+00
 -18.750  0.132E+00  0.132E+00
 -18.740  0.122E+00  0.122E+00
 -18.730  0.111E+00  0.111E+00
 -18.720  0.998E-01  0.998E-01
 -18.710  0.887E-01  0.887E-01
 -18.700  0.791E-01  0.791E-01
 -18.690  0.715E-01  0.715E-01
 -18.680  0.663E-01  0.663E-01
 -18.670  0.637E-01  0.637E-01
 -18.660  0.636E-01  0.636E-01
 -18.650  0.657E-01  0.657E-01
 -18.640  0.693E-01  0.693E-01
 -18.630  0.736E-01  0.736E-01
 -18.620  0.777E-01  0.777E-01
 -18.610  0.812E-01  0.812E-01
 -18.600  0.837E-01  0.837E-01
 -18.590  0.855E-01  0.855E-01
 -18.580  0.873E-01  0.873E-01
 -18.570  0.899E-01  0.899E-01
 -18.560  0.940E-01  0.940E-01
 -18.550  0.997E-01  0.997E-01
 -18.540  0.107E+00  0.107E+00
 -18.530  0.115E+00  0.115E+00
 -18.520  0.122E+00  0.122E+00
 -18.510  0.127E+00  0.127E+00
 -18.500  0.129E+00  0.129E+00
 -18.490  0.129E+00  0.129E+00
 -18.480  0.126E+00  0.126E+00
 -18.470  0.120E+00  0.120E+00
 -18.460  0.113E+00  0.113E+00
 -18.450  0.105E+00  0.105E+00
 -18.440  0.964E-01  0.964E-01
 -18.430  0.885E-01  0.885E-01
 -18.420  0.810E-01  0.810E-01
 -18.410  0.740E-01  0.740E-01
 -18.400  0.677E-01  0.677E-01
 -18.390  0.623E-01  0.623E-01
 -18.380  0.581E-01  0.581E-01
 -18.370  0.556E-01  0.556E-01
 -18.360  0.553E-01  0.553E-01
 -18.350  0.577E-01  0.577E-01
 -18.340  0.627E-01  0.627E-01
 -18.330  0.701E-01  0.701E-01
 -18.320  0.792E-01  0.792E-01
 -18.310  0.890E-01  0.890E-01
 -18.300  0.985E-01  0.985E-01
 -18.290  0.107E+00  0.107E+00
 -18.280  0.113E+00  0.113E+00
 -18.270  0.118E+00  0.118E+00
 -18.260  0.121E+00  0.121E+00
 -18.250  0.121E+00  0.121E+00
 -18.240  0.121E+00  0.121E+00
 -18.230  0.119E+00  0.119E+00
 -18.220  0.116E+00  0.116E+00
 -18.210  0.113E+00  0.113E+00
 -18.200  0.109E+00  0.109E+00
 -18.190  0.104E+00  0.104E+00
 -18.180  0.996E-01  0.996E-01
 -18.170  0.953E-01  0.953E-01
 -18.160  0.914E-01  0.914E-01
 -18.150  0.881E-01  0.881E-01
 -18.140  0.851E-01  0.851E-01
 -18.130  0.824E-01  0.824E-01
 -18.120  0.797E-01  0.797E-01
 -18.110  0.767E-01  0.767E-01
 -18.100  0.732E-01  0.732E-01
 -18.090  0.691E-01  0.691E-01
 -18.080  0.648E-01  0.648E-01
 -18.070  0.606E-01  0.606E-01
 -18.060  0.572E-01  0.572E-01
 -18.050  0.557E-01  0.557E-01
 -18.040  0.568E-01  0.568E-01
 -18.030  0.614E-01  0.614E-01
 -18.020  0.698E-01  0.698E-01
 -18.010  0.815E-01  0.815E-01
 -18.000  0.955E-01  0.955E-01
 -17.990  0.110E+00  0.110E+00
 -17.980  0.124E+00  0.124E+00
 -17.970  0.134E+00  0.134E+00
 -17.960  0.140E+00  0.140E+00
 -17.950  0.140E+00  0.140E+00
 -17.940  0.136E+00  0.136E+00
 -17.930  0.128E+00  0.128E+00
 -17.920  0.118E+00  0.118E+00
 -17.910  0.107E+00  0.107E+00
 -17.900  0.966E-01  0.966E-01
 -17.890  0.881E-01  0.881E-01
 -17.880  0.816E-01  0.816E-01
 -17.870  0.772E-01  0.772E-01
 -17.860  0.746E-01  0.746E-01
 -17.850  0.733E-01  0.733E-01
 -17.840  0.730E-01  0.730E-01
 -17.830  0.733E-01  0.733E-01
 -17.820  0.739E-01  0.739E-01
 -17.810  0.745E-01  0.745E-01
 -17.800  0.750E-01  0.750E-01
 -17.790  0.751E-01  0.751E-01
 -17.780  0.748E-01  0.748E-01
 -17.770  0.740E-01  0.740E-01
 -17.760  0.726E-01  0.726E-01
 -17.750  0.710E-01  0.710E-01
 -17.740  0.696E-01  0.696E-01
 -17.730  0.689E-01  0.689E-01
 -17.720  0.699E-01  0.699E-01
 -17.710  0.732E-01  0.732E-01
 -17.700  0.795E-01  0.795E-01
 -17.690  0.887E-01  0.887E-01
 -17.680  0.100E+00  0.100E+00
 -17.670  0.113E+00  0.113E+00
 -17.660  0.125E+00  0.125E+00
 -17.650  0.134E+00  0.134E+00
 -17.640  0.140E+00  0.140E+00
 -17.630  0.141E+00  0.141E+00
 -17.620  0.136E+00  0.136E+00
 -17.610  0.127E+00  0.127E+00
 -17.600  0.116E+00  0.116E+00
 -17.590  0.103E+00  0.103E+00
 -17.580  0.908E-01  0.908E-01
 -17.570  0.802E-01  0.802E-01
 -17.560  0.722E-01  0.722E-01
 -17.550  0.667E-01  0.667E-01
 -17.540  0.636E-01  0.636E-01
 -17.530  0.623E-01  0.623E-01
 -17.520  0.621E-01  0.621E-01
 -17.510  0.627E-01  0.627E-01
 -17.500  0.637E-01  0.637E-01
 -17.490  0.650E-01  0.650E-01
 -17.480  0.666E-01  0.666E-01
 -17.470  0.685E-01  0.685E-01
 -17.460  0.709E-01  0.709E-01
 -17.450  0.738E-01  0.738E-01
 -17.440  0.773E-01  0.773E-01
 -17.430  0.810E-01  0.810E-01
 -17.420  0.850E-01  0.850E-01
 -17.410  0.890E-01  0.890E-01
 -17.400  0.928E-01  0.928E-01
 -17.390  0.963E-01  0.963E-01
 -17.380  0.994E-01  0.994E-01
 -17.370  0.102E+00  0.102E+00
 -17.360  0.105E+00  0.105E+00
 -17.350  0.108E+00  0.108E+00
 -17.340  0.111E+00  0.111E+00
 -17.330  0.114E+00  0.114E+00
 -17.320  0.116E+00  0.116E+00
 -17.310  0.118E+00  0.118E+00
 -17.300  0.119E+00  0.119E+00
 -17.290  0.117E+00  0.117E+00
 -17.280  0.114E+00  0.114E+00
 -17.270  0.109E+00  0.109E+00
 -17.260  0.102E+00  0.102E+00
 -17.250  0.936E-01  0.936E-01
 -17.240  0.852E-01  0.852E-01
 -17.230  0.773E-01  0.773E-01
 -17.220  0.704E-01  0.704E-01
 -17.210  0.649E-01  0.649E-01
 -17.200  0.612E-01  0.612E-01
 -17.190  0.589E-01  0.589E-01
 -17.180  0.579E-01  0.579E-01
 -17.170  0.579E-01  0.579E-01
 -17.160  0.585E-01  0.585E-01
 -17.150  0.597E-01  0.597E-01
 -17.140  0.616E-01  0.616E-01
 -17.130  0.643E-01  0.643E-01
 -17.120  0.682E-01  0.682E-01
 -17.110  0.737E-01  0.737E-01
 -17.100  0.809E-01  0.809E-01
 -17.090  0.896E-01  0.896E-01
 -17.080  0.993E-01  0.993E-01
 -17.070  0.109E+00  0.109E+00
 -17.060  0.118E+00  0.118E+00
 -17.050  0.125E+00  0.125E+00
 -17.040  0.128E+00  0.128E+00
 -17.030  0.128E+00  0.128E+00
 -17.020  0.124E+00  0.124E+00
 -17.010  0.118E+00  0.118E+00
 -17.000  0.111E+00  0.111E+00
 -16.990  0.103E+00  0.103E+00
 -16.980  0.965E-01  0.965E-01
 -16.970  0.923E-01  0.923E-01
 -16.960  0.905E-01  0.905E-01
 -16.950  0.907E-01  0.907E-01
 -16.940  0.921E-01  0.921E-01
 -16.930  0.936E-01  0.936E-01
 -16.920  0.942E-01  0.942E-01
 -16.910  0.932E-01  0.932E-01
 -16.900  0.904E-01  0.904E-01
 -16.890  0.860E-01  0.860E-01
 -16.880  0.804E-01  0.804E-01
 -16.870  0.744E-01  0.744E-01
 -16.860  0.686E-01  0.686E-01
 -16.850  0.639E-01  0.639E-01
 -16.840  0.605E-01  0.605E-01
 -16.830  0.586E-01  0.586E-01
 -16.820  0.582E-01  0.582E-01
 -16.810  0.592E-01  0.592E-01
 -16.800  0.615E-01  0.615E-01
 -16.790  0.650E-01  0.650E-01
 -16.780  0.698E-01  0.698E-01
 -16.770  0.762E-01  0.762E-01
 -16.760  0.844E-01  0.844E-01
 -16.750  0.944E-01  0.944E-01
 -16.740  0.106E+00  0.106E+00
 -16.730  0.118E+00  0.118E+00
 -16.720  0.129E+00  0.129E+00
 -16.710  0.138E+00  0.138E+00
 -16.700  0.143E+00  0.143E+00
 -16.690  0.144E+00  0.144E+00
 -16.680  0.140E+00  0.140E+00
 -16.670  0.131E+00  0.131E+00
 -16.660  0.120E+00  0.120E+00
 -16.650  0.107E+00  0.107E+00
 -16.640  0.946E-01  0.946E-01
 -16.630  0.848E-01  0.848E-01
 -16.620  0.786E-01  0.786E-01
 -16.610  0.762E-01  0.762E-01
 -16.600  0.774E-01  0.774E-01
 -16.590  0.810E-01  0.810E-01
 -16.580  0.856E-01  0.856E-01
 -16.570  0.898E-01  0.898E-01
 -16.560  0.924E-01  0.924E-01
 -16.550  0.929E-01  0.929E-01
 -16.540  0.909E-01  0.909E-01
 -16.530  0.870E-01  0.870E-01
 -16.520  0.817E-01  0.817E-01
 -16.510  0.760E-01  0.760E-01
 -16.500  0.708E-01  0.708E-01
 -16.490  0.669E-01  0.669E-01
 -16.480  0.649E-01  0.649E-01
 -16.470  0.650E-01  0.650E-01
 -16.460  0.675E-01  0.675E-01
 -16.450  0.721E-01  0.721E-01
 -16.440  0.787E-01  0.787E-01
 -16.430  0.871E-01  0.871E-01
 -16.420  0.968E-01  0.968E-01
 -16.410  0.108E+00  0.108E+00
 -16.400  0.119E+00  0.119E+00
 -16.390  0.129E+00  0.129E+00
 -16.380  0.139E+00  0.139E+00
 -16.370  0.146E+00  0.146E+00
 -16.360  0.150E+00  0.150E+00
 -16.350  0.151E+00  0.151E+00
 -16.340  0.147E+00  0.147E+00
 -16.330  0.140E+00  0.140E+00
 -16.320  0.130E+00  0.130E+00
 -16.310  0.119E+00  0.119E+00
 -16.300  0.110E+00  0.110E+00
 -16.290  0.102E+00  0.102E+00
 -16.280  0.970E-01  0.970E-01
 -16.270  0.957E-01  0.957E-01
 -16.260  0.973E-01  0.973E-01
 -16.250  0.101E+00  0.101E+00
 -16.240  0.105E+00  0.105E+00
 -16.230  0.108E+00  0.108E+00
 -16.220  0.109E+00  0.109E+00
 -16.210  0.108E+00  0.108E+00
 -16.200  0.106E+00  0.106E+00
 -16.190  0.104E+00  0.104E+00
 -16.180  0.102E+00  0.102E+00
 -16.170  0.102E+00  0.102E+00
 -16.160  0.104E+00  0.104E+00
 -16.150  0.108E+00  0.108E+00
 -16.140  0.114E+00  0.114E+00
 -16.130  0.120E+00  0.120E+00
 -16.120  0.127E+00  0.127E+00
 -16.110  0.133E+00  0.133E+00
 -16.100  0.139E+00  0.139E+00
 -16.090  0.144E+00  0.144E+00
 -16.080  0.148E+00  0.148E+00
 -16.070  0.152E+00  0.152E+00
 -16.060  0.155E+00  0.155E+00
 -16.050  0.158E+00  0.158E+00
 -16.040  0.159E+00  0.159E+00
 -16.030  0.159E+00  0.159E+00
 -16.020  0.158E+00  0.158E+00
 -16.010  0.153E+00  0.153E+00
 -16.000  0.147E+00  0.147E+00
 -15.990  0.137E+00  0.137E+00
 -15.980  0.126E+00  0.126E+00
 -15.970  0.113E+00  0.113E+00
 -15.960  0.100E+00  0.100E+00
 -15.950  0.880E-01  0.880E-01
 -15.940  0.778E-01  0.778E-01
 -15.930  0.705E-01  0.705E-01
 -15.920  0.665E-01  0.665E-01
 -15.910  0.658E-01  0.658E-01
 -15.900  0.676E-01  0.676E-01
 -15.890  0.711E-01  0.711E-01
 -15.880  0.748E-01  0.748E-01
 -15.870  0.776E-01  0.776E-01
 -15.860  0.782E-01  0.782E-01
 -15.850  0.759E-01  0.759E-01
 -15.840  0.704E-01  0.704E-01
 -15.830  0.620E-01  0.620E-01
 -15.820  0.516E-01  0.516E-01
 -15.810  0.406E-01  0.406E-01
 -15.800  0.303E-01  0.303E-01
 -15.790  0.223E-01  0.223E-01
 -15.780  0.179E-01  0.179E-01
 -15.770  0.180E-01  0.180E-01
 -15.760  0.229E-01  0.229E-01
 -15.750  0.326E-01  0.326E-01
 -15.740  0.465E-01  0.465E-01
 -15.730  0.634E-01  0.634E-01
 -15.720  0.819E-01  0.819E-01
 -15.710  0.100E+00  0.100E+00
 -15.700  0.117E+00  0.117E+00
 -15.690  0.131E+00  0.131E+00
 -15.680  0.140E+00  0.140E+00
 -15.670  0.143E+00  0.143E+00
 -15.660  0.141E+00  0.141E+00
 -15.650  0.132E+00  0.132E+00
 -15.640  0.119E+00  0.119E+00
 -15.630  0.101E+00  0.101E+00
 -15.620  0.809E-01  0.809E-01
 -15.610  0.599E-01  0.599E-01
 -15.600  0.399E-01  0.399E-01
 -15.590  0.224E-01  0.224E-01
 -15.580  0.840E-02  0.840E-02
 -15.570 -0.139E-02 -0.139E-02
 -15.560 -0.696E-02 -0.696E-02
 -15.550 -0.873E-02 -0.873E-02
 -15.540 -0.746E-02 -0.746E-02
 -15.530 -0.405E-02 -0.405E-02
 -15.520  0.588E-03  0.588E-03
 -15.510  0.570E-02  0.570E-02
 -15.500  0.108E-01  0.108E-01
 -15.490  0.156E-01  0.156E-01
 -15.480  0.202E-01  0.202E-01
 -15.470  0.251E-01  0.251E-01
 -15.460  0.306E-01  0.306E-01
 -15.450  0.375E-01  0.375E-01
 -15.440  0.461E-01  0.461E-01
 -15.430  0.565E-01  0.565E-01
 -15.420  0.685E-01  0.685E-01
 -15.410  0.812E-01  0.812E-01
 -15.400  0.932E-01  0.932E-01
 -15.390  0.103E+00  0.103E+00
 -15.380  0.109E+00  0.109E+00
 -15.370  0.109E+00  0.109E+00
 -15.360  0.104E+00  0.104E+00
 -15.350  0.937E-01  0.937E-01
 -15.340  0.785E-01  0.785E-01
 -15.330  0.607E-01  0.607E-01
 -15.320  0.423E-01  0.423E-01
 -15.310  0.255E-01  0.255E-01
 -15.300  0.117E-01  0.117E-01
 -15.290  0.199E-02  0.199E-02
 -15.280 -0.347E-02 -0.347E-02
 -15.270 -0.513E-02 -0.513E-02
 -15.260 -0.387E-02 -0.387E-02
 -15.250 -0.780E-03 -0.780E-03
 -15.240  0.307E-02  0.307E-02
 -15.230  0.682E-02  0.682E-02
 -15.220  0.993E-02  0.993E-02
 -15.210  0.122E-01  0.122E-01
 -15.200  0.137E-01  0.137E-01
 -15.190  0.147E-01  0.147E-01
 -15.180  0.159E-01  0.159E-01
 -15.170  0.176E-01  0.176E-01
 -15.160  0.203E-01  0.203E-01
 -15.150  0.242E-01  0.242E-01
 -15.140  0.293E-01  0.293E-01
 -15.130  0.353E-01  0.353E-01
 -15.120  0.420E-01  0.420E-01
 -15.110  0.487E-01  0.487E-01
 -15.100  0.551E-01  0.551E-01
