# E (eV)   ldos(E)   pdos(E)   
 -20.380  0.128E-07  0.128E-07
 -20.370  0.376E-07  0.376E-07
 -20.360  0.106E-06  0.106E-06
 -20.350  0.284E-06  0.284E-06
 -20.340  0.731E-06  0.731E-06
 -20.330  0.181E-05  0.181E-05
 -20.320  0.427E-05  0.427E-05
 -20.310  0.969E-05  0.969E-05
 -20.300  0.211E-04  0.211E-04
 -20.290  0.439E-04  0.439E-04
 -20.280  0.877E-04  0.877E-04
 -20.270  0.168E-03  0.168E-03
 -20.260  0.309E-03  0.309E-03
 -20.250  0.544E-03  0.544E-03
 -20.240  0.921E-03  0.921E-03
 -20.230  0.149E-02  0.149E-02
 -20.220  0.233E-02  0.233E-02
 -20.210  0.349E-02  0.349E-02
 -20.200  0.503E-02  0.503E-02
 -20.190  0.696E-02  0.696E-02
 -20.180  0.928E-02  0.928E-02
 -20.170  0.119E-01  0.119E-01
 -20.160  0.148E-01  0.148E-01
 -20.150  0.177E-01  0.177E-01
 -20.140  0.205E-01  0.205E-01
 -20.130  0.231E-01  0.231E-01
 -20.120  0.253E-01  0.253E-01
 -20.110  0.270E-01  0.270E-01
 -20.100  0.282E-01  0.282E-01
 -20.090  0.291E-01  0.291E-01
 -20.080  0.295E-01  0.295E-01
 -20.070  0.298E-01  0.298E-01
 -20.060  0.300E-01  0.300E-01
 -20.050  0.302E-01  0.302E-01
 -20.040  0.306E-01  0.306E-01
 -20.030  0.315E-01  0.315E-01
 -20.020  0.330E-01  0.330E-01
 -20.010  0.354E-01  0.354E-01
 -20.000  0.391E-01  0.391E-01
 -19.990  0.446E-01  0.446E-01
 -19.980  0.521E-01  0.521E-01
 -19.970  0.621E-01  0.621E-01
 -19.960  0.747E-01  0.747E-01
 -19.950  0.899E-01  0.899E-01
 -19.940  0.107E+00  0.107E+00
 -19.930  0.126E+00  0.126E+00
 -19.920  0.145E+00  0.145E+00
 -19.910  0.164E+00  0.164E+00
 -19.900  0.181E+00  0.181E+00
 -19.890  0.195E+00  0.195E+00
 -19.880  0.206E+00  0.206E+00
 -19.870  0.213E+00  0.213E+00
 -19.860  0.217E+00  0.217E+00
 -19.850  0.219E+00  0.219E+00
 -19.840  0.218E+00  0.218E+00
 -19.830  0.216E+00  0.216E+00
 -19.820  0.213E+00  0.213E+00
 -19.810  0.211E+00  0.211E+00
 -19.800  0.208E+00  0.208E+00
 -19.790  0.206E+00  0.206E+00
 -19.780  0.205E+00  0.205E+00
 -19.770  0.204E+00  0.204E+00
 -19.760  0.203E+00  0.203E+00
 -19.750  0.202E+00  0.202E+00
 -19.740  0.202E+00  0.202E+00
 -19.730  0.201E+00  0.201E+00
 -19.720  0.201E+00  0.201E+00
 -19.710  0.201E+00  0.201E+00
 -19.700  0.201E+00  0.201E+00
 -19.690  0.201E+00  0.201E+00
 -19.680  0.201E+00  0.201E+00
 -19.670  0.201E+00  0.201E+00
 -19.660  0.201E+00  0.201E+00
 -19.650  0.200E+00  0.200E+00
 -19.640  0.200E+00  0.200E+00
 -19.630  0.199E+00  0.199E+00
 -19.620  0.199E+00  0.199E+00
 -19.610  0.199E+00  0.199E+00
 -19.600  0.200E+00  0.200E+00
 -19.590  0.200E+00  0.200E+00
 -19.580  0.201E+00  0.201E+00
 -19.570  0.200E+00  0.200E+00
 -19.560  0.200E+00  0.200E+00
 -19.550  0.199E+00  0.199E+00
 -19.540  0.198E+00  0.198E+00
 -19.530  0.198E+00  0.198E+00
 -19.520  0.198E+00  0.198E+00
 -19.510  0.198E+00  0.198E+00
 -19.500  0.199E+00  0.199E+00
 -19.490  0.200E+00  0.200E+00
 -19.480  0.201E+00  0.201E+00
 -19.470  0.201E+00  0.201E+00
 -19.460  0.200E+00  0.200E+00
 -19.450  0.199E+00  0.199E+00
 -19.440  0.198E+00  0.198E+00
 -19.430  0.197E+00  0.197E+00
 -19.420  0.197E+00  0.197E+00
 -19.410  0.197E+00  0.197E+00
 -19.400  0.198E+00  0.198E+00
 -19.390  0.199E+00  0.199E+00
 -19.380  0.200E+00  0.200E+00
 -19.370  0.200E+00  0.200E+00
 -19.360  0.201E+00  0.201E+00
 -19.350  0.201E+00  0.201E+00
 -19.340  0.200E+00  0.200E+00
 -19.330  0.200E+00  0.200E+00
 -19.320  0.199E+00  0.199E+00
 -19.310  0.198E+00  0.198E+00
 -19.300  0.197E+00  0.197E+00
 -19.290  0.196E+00  0.196E+00
 -19.280  0.196E+00  0.196E+00
 -19.270  0.197E+00  0.197E+00
 -19.260  0.199E+00  0.199E+00
 -19.250  0.201E+00  0.201E+00
 -19.240  0.203E+00  0.203E+00
 -19.230  0.204E+00  0.204E+00
 -19.220  0.205E+00  0.205E+00
 -19.210  0.204E+00  0.204E+00
 -19.200  0.201E+00  0.201E+00
 -19.190  0.198E+00  0.198E+00
 -19.180  0.195E+00  0.195E+00
 -19.170  0.193E+00  0.193E+00
 -19.160  0.193E+00  0.193E+00
 -19.150  0.194E+00  0.194E+00
 -19.140  0.198E+00  0.198E+00
 -19.130  0.202E+00  0.202E+00
 -19.120  0.207E+00  0.207E+00
 -19.110  0.210E+00  0.210E+00
 -19.100  0.211E+00  0.211E+00
 -19.090  0.209E+00  0.209E+00
 -19.080  0.205E+00  0.205E+00
 -19.070  0.200E+00  0.200E+00
 -19.060  0.195E+00  0.195E+00
 -19.050  0.191E+00  0.191E+00
 -19.040  0.189E+00  0.189E+00
 -19.030  0.191E+00  0.191E+00
 -19.020  0.195E+00  0.195E+00
 -19.010  0.201E+00  0.201E+00
 -19.000  0.207E+00  0.207E+00
 -18.990  0.213E+00  0.213E+00
 -18.980  0.217E+00  0.217E+00
 -18.970  0.217E+00  0.217E+00
 -18.960  0.214E+00  0.214E+00
 -18.950  0.208E+00  0.208E+00
 -18.940  0.202E+00  0.202E+00
 -18.930  0.195E+00  0.195E+00
 -18.920  0.190E+00  0.190E+00
 -18.910  0.188E+00  0.188E+00
 -18.900  0.190E+00  0.190E+00
 -18.890  0.194E+00  0.194E+00
 -18.880  0.201E+00  0.201E+00
 -18.870  0.209E+00  0.209E+00
 -18.860  0.216E+00  0.216E+00
 -18.850  0.221E+00  0.221E+00
 -18.840  0.222E+00  0.222E+00
 -18.830  0.220E+00  0.220E+00
 -18.820  0.215E+00  0.215E+00
 -18.810  0.208E+00  0.208E+00
 -18.800  0.200E+00  0.200E+00
 -18.790  0.194E+00  0.194E+00
 -18.780  0.190E+00  0.190E+00
 -18.770  0.189E+00  0.189E+00
 -18.760  0.193E+00  0.193E+00
 -18.750  0.199E+00  0.199E+00
 -18.740  0.207E+00  0.207E+00
 -18.730  0.216E+00  0.216E+00
 -18.720  0.222E+00  0.222E+00
 -18.710  0.226E+00  0.226E+00
 -18.700  0.226E+00  0.226E+00
 -18.690  0.223E+00  0.223E+00
 -18.680  0.217E+00  0.217E+00
 -18.670  0.210E+00  0.210E+00
 -18.660  0.202E+00  0.202E+00
 -18.650  0.196E+00  0.196E+00
 -18.640  0.193E+00  0.193E+00
 -18.630  0.194E+00  0.194E+00
 -18.620  0.197E+00  0.197E+00
 -18.610  0.204E+00  0.204E+00
 -18.600  0.212E+00  0.212E+00
 -18.590  0.220E+00  0.220E+00
 -18.580  0.226E+00  0.226E+00
 -18.570  0.230E+00  0.230E+00
 -18.560  0.230E+00  0.230E+00
 -18.550  0.227E+00  0.227E+00
 -18.540  0.221E+00  0.221E+00
 -18.530  0.214E+00  0.214E+00
 -18.520  0.206E+00  0.206E+00
 -18.510  0.201E+00  0.201E+00
 -18.500  0.198E+00  0.198E+00
 -18.490  0.199E+00  0.199E+00
 -18.480  0.202E+00  0.202E+00
 -18.470  0.209E+00  0.209E+00
 -18.460  0.217E+00  0.217E+00
 -18.450  0.225E+00  0.225E+00
 -18.440  0.232E+00  0.232E+00
 -18.430  0.236E+00  0.236E+00
 -18.420  0.236E+00  0.236E+00
 -18.410  0.233E+00  0.233E+00
 -18.400  0.227E+00  0.227E+00
 -18.390  0.219E+00  0.219E+00
 -18.380  0.212E+00  0.212E+00
 -18.370  0.205E+00  0.205E+00
 -18.360  0.202E+00  0.202E+00
 -18.350  0.202E+00  0.202E+00
 -18.340  0.205E+00  0.205E+00
 -18.330  0.212E+00  0.212E+00
 -18.320  0.221E+00  0.221E+00
 -18.310  0.231E+00  0.231E+00
 -18.300  0.239E+00  0.239E+00
 -18.290  0.244E+00  0.244E+00
 -18.280  0.246E+00  0.246E+00
 -18.270  0.245E+00  0.245E+00
 -18.260  0.239E+00  0.239E+00
 -18.250  0.231E+00  0.231E+00
 -18.240  0.222E+00  0.222E+00
 -18.230  0.213E+00  0.213E+00
 -18.220  0.207E+00  0.207E+00
 -18.210  0.203E+00  0.203E+00
 -18.200  0.204E+00  0.204E+00
 -18.190  0.210E+00  0.210E+00
 -18.180  0.219E+00  0.219E+00
 -18.170  0.230E+00  0.230E+00
 -18.160  0.242E+00  0.242E+00
 -18.150  0.252E+00  0.252E+00
 -18.140  0.259E+00  0.259E+00
 -18.130  0.261E+00  0.261E+00
 -18.120  0.258E+00  0.258E+00
 -18.110  0.251E+00  0.251E+00
 -18.100  0.241E+00  0.241E+00
 -18.090  0.230E+00  0.230E+00
 -18.080  0.220E+00  0.220E+00
 -18.070  0.212E+00  0.212E+00
 -18.060  0.208E+00  0.208E+00
 -18.050  0.209E+00  0.209E+00
 -18.040  0.214E+00  0.214E+00
 -18.030  0.223E+00  0.223E+00
 -18.020  0.235E+00  0.235E+00
 -18.010  0.248E+00  0.248E+00
 -18.000  0.261E+00  0.261E+00
 -17.990  0.270E+00  0.270E+00
 -17.980  0.274E+00  0.274E+00
 -17.970  0.273E+00  0.273E+00
 -17.960  0.268E+00  0.268E+00
 -17.950  0.258E+00  0.258E+00
 -17.940  0.246E+00  0.246E+00
 -17.930  0.234E+00  0.234E+00
 -17.920  0.225E+00  0.225E+00
 -17.910  0.219E+00  0.219E+00
 -17.900  0.218E+00  0.218E+00
 -17.890  0.221E+00  0.221E+00
 -17.880  0.229E+00  0.229E+00
 -17.870  0.241E+00  0.241E+00
 -17.860  0.254E+00  0.254E+00
 -17.850  0.267E+00  0.267E+00
 -17.840  0.278E+00  0.278E+00
 -17.830  0.285E+00  0.285E+00
 -17.820  0.288E+00  0.288E+00
 -17.810  0.285E+00  0.285E+00
 -17.800  0.277E+00  0.277E+00
 -17.790  0.266E+00  0.266E+00
 -17.780  0.253E+00  0.253E+00
 -17.770  0.242E+00  0.242E+00
 -17.760  0.234E+00  0.234E+00
 -17.750  0.231E+00  0.231E+00
 -17.740  0.233E+00  0.233E+00
 -17.730  0.240E+00  0.240E+00
 -17.720  0.251E+00  0.251E+00
 -17.710  0.265E+00  0.265E+00
 -17.700  0.278E+00  0.278E+00
 -17.690  0.291E+00  0.291E+00
 -17.680  0.299E+00  0.299E+00
 -17.670  0.303E+00  0.303E+00
 -17.660  0.302E+00  0.302E+00
 -17.650  0.296E+00  0.296E+00
 -17.640  0.286E+00  0.286E+00
 -17.630  0.274E+00  0.274E+00
 -17.620  0.262E+00  0.262E+00
 -17.610  0.253E+00  0.253E+00
 -17.600  0.248E+00  0.248E+00
 -17.590  0.249E+00  0.249E+00
 -17.580  0.255E+00  0.255E+00
 -17.570  0.267E+00  0.267E+00
 -17.560  0.281E+00  0.281E+00
 -17.550  0.296E+00  0.296E+00
 -17.540  0.310E+00  0.310E+00
 -17.530  0.320E+00  0.320E+00
 -17.520  0.326E+00  0.326E+00
 -17.510  0.326E+00  0.326E+00
 -17.500  0.321E+00  0.321E+00
 -17.490  0.311E+00  0.311E+00
 -17.480  0.299E+00  0.299E+00
 -17.470  0.287E+00  0.287E+00
 -17.460  0.276E+00  0.276E+00
 -17.450  0.270E+00  0.270E+00
 -17.440  0.270E+00  0.270E+00
 -17.430  0.275E+00  0.275E+00
 -17.420  0.286E+00  0.286E+00
 -17.410  0.301E+00  0.301E+00
 -17.400  0.318E+00  0.318E+00
 -17.390  0.334E+00  0.334E+00
 -17.380  0.347E+00  0.347E+00
 -17.370  0.355E+00  0.355E+00
 -17.360  0.357E+00  0.357E+00
 -17.350  0.353E+00  0.353E+00
 -17.340  0.345E+00  0.345E+00
 -17.330  0.333E+00  0.333E+00
 -17.320  0.320E+00  0.320E+00
 -17.310  0.309E+00  0.309E+00
 -17.300  0.303E+00  0.303E+00
 -17.290  0.302E+00  0.302E+00
 -17.280  0.308E+00  0.308E+00
 -17.270  0.320E+00  0.320E+00
 -17.260  0.336E+00  0.336E+00
 -17.250  0.355E+00  0.355E+00
 -17.240  0.372E+00  0.372E+00
 -17.230  0.386E+00  0.386E+00
 -17.220  0.395E+00  0.395E+00
 -17.210  0.398E+00  0.398E+00
 -17.200  0.394E+00  0.394E+00
 -17.190  0.385E+00  0.385E+00
 -17.180  0.374E+00  0.374E+00
 -17.170  0.362E+00  0.362E+00
 -17.160  0.354E+00  0.354E+00
 -17.150  0.351E+00  0.351E+00
 -17.140  0.354E+00  0.354E+00
 -17.130  0.365E+00  0.365E+00
 -17.120  0.381E+00  0.381E+00
 -17.110  0.401E+00  0.401E+00
 -17.100  0.422E+00  0.422E+00
 -17.090  0.441E+00  0.441E+00
 -17.080  0.455E+00  0.455E+00
 -17.070  0.463E+00  0.463E+00
 -17.060  0.464E+00  0.464E+00
 -17.050  0.458E+00  0.458E+00
 -17.040  0.449E+00  0.449E+00
 -17.030  0.440E+00  0.440E+00
 -17.020  0.434E+00  0.434E+00
 -17.010  0.433E+00  0.433E+00
 -17.000  0.440E+00  0.440E+00
 -16.990  0.456E+00  0.456E+00
 -16.980  0.479E+00  0.479E+00
 -16.970  0.508E+00  0.508E+00
 -16.960  0.538E+00  0.538E+00
 -16.950  0.567E+00  0.567E+00
 -16.940  0.591E+00  0.591E+00
 -16.930  0.610E+00  0.610E+00
 -16.920  0.623E+00  0.623E+00
 -16.910  0.631E+00  0.631E+00
 -16.900  0.639E+00  0.639E+00
 -16.890  0.649E+00  0.649E+00
 -16.880  0.664E+00  0.664E+00
 -16.870  0.686E+00  0.686E+00
 -16.860  0.715E+00  0.715E+00
 -16.850  0.747E+00  0.747E+00
 -16.840  0.777E+00  0.777E+00
 -16.830  0.799E+00  0.799E+00
 -16.820  0.807E+00  0.807E+00
 -16.810  0.798E+00  0.798E+00
 -16.800  0.770E+00  0.770E+00
 -16.790  0.726E+00  0.726E+00
 -16.780  0.673E+00  0.673E+00
 -16.770  0.618E+00  0.618E+00
 -16.760  0.570E+00  0.570E+00
 -16.750  0.534E+00  0.534E+00
 -16.740  0.512E+00  0.512E+00
 -16.730  0.503E+00  0.503E+00
 -16.720  0.502E+00  0.502E+00
 -16.710  0.504E+00  0.504E+00
 -16.700  0.502E+00  0.502E+00
 -16.690  0.494E+00  0.494E+00
 -16.680  0.479E+00  0.479E+00
 -16.670  0.460E+00  0.460E+00
 -16.660  0.440E+00  0.440E+00
 -16.650  0.424E+00  0.424E+00
 -16.640  0.414E+00  0.414E+00
 -16.630  0.411E+00  0.411E+00
 -16.620  0.413E+00  0.413E+00
 -16.610  0.416E+00  0.416E+00
 -16.600  0.419E+00  0.419E+00
 -16.590  0.418E+00  0.418E+00
 -16.580  0.412E+00  0.412E+00
 -16.570  0.403E+00  0.403E+00
 -16.560  0.392E+00  0.392E+00
 -16.550  0.381E+00  0.381E+00
 -16.540  0.374E+00  0.374E+00
 -16.530  0.369E+00  0.369E+00
 -16.520  0.367E+00  0.367E+00
 -16.510  0.366E+00  0.366E+00
 -16.500  0.366E+00  0.366E+00
 -16.490  0.364E+00  0.364E+00
 -16.480  0.361E+00  0.361E+00
 -16.470  0.356E+00  0.356E+00
 -16.460  0.350E+00  0.350E+00
 -16.450  0.345E+00  0.345E+00
 -16.440  0.340E+00  0.340E+00
 -16.430  0.337E+00  0.337E+00
 -16.420  0.334E+00  0.334E+00
 -16.410  0.332E+00  0.332E+00
 -16.400  0.330E+00  0.330E+00
 -16.390  0.327E+00  0.327E+00
 -16.380  0.324E+00  0.324E+00
 -16.370  0.320E+00  0.320E+00
 -16.360  0.316E+00  0.316E+00
 -16.350  0.313E+00  0.313E+00
 -16.340  0.309E+00  0.309E+00
 -16.330  0.304E+00  0.304E+00
 -16.320  0.298E+00  0.298E+00
 -16.310  0.290E+00  0.290E+00
 -16.300  0.279E+00  0.279E+00
 -16.290  0.265E+00  0.265E+00
 -16.280  0.248E+00  0.248E+00
 -16.270  0.226E+00  0.226E+00
 -16.260  0.200E+00  0.200E+00
 -16.250  0.170E+00  0.170E+00
 -16.240  0.138E+00  0.138E+00
 -16.230  0.105E+00  0.105E+00
 -16.220  0.734E-01  0.734E-01
 -16.210  0.443E-01  0.443E-01
 -16.200  0.197E-01  0.197E-01
 -16.190  0.452E-03  0.452E-03
 -16.180 -0.130E-01 -0.130E-01
 -16.170 -0.208E-01 -0.208E-01
 -16.160 -0.240E-01 -0.240E-01
 -16.150 -0.237E-01 -0.237E-01
 -16.140 -0.210E-01 -0.210E-01
 -16.130 -0.172E-01 -0.172E-01
 -16.120 -0.132E-01 -0.132E-01
 -16.110 -0.947E-02 -0.947E-02
 -16.100 -0.638E-02 -0.638E-02
 -16.090 -0.403E-02 -0.403E-02
 -16.080 -0.235E-02 -0.235E-02
 -16.070 -0.123E-02 -0.123E-02
 -16.060 -0.526E-03 -0.526E-03
 -16.050 -0.112E-03 -0.112E-03
 -16.040  0.114E-03  0.114E-03
 -16.030  0.225E-03  0.225E-03
 -16.020  0.272E-03  0.272E-03
 -16.010  0.288E-03  0.288E-03
 -16.000  0.294E-03  0.294E-03
 -15.990  0.304E-03  0.304E-03
 -15.980  0.322E-03  0.322E-03
 -15.970  0.352E-03  0.352E-03
 -15.960  0.391E-03  0.391E-03
 -15.950  0.435E-03  0.435E-03
 -15.940  0.479E-03  0.479E-03
 -15.930  0.517E-03  0.517E-03
 -15.920  0.545E-03  0.545E-03
 -15.910  0.558E-03  0.558E-03
 -15.900  0.555E-03  0.555E-03
 -15.890  0.538E-03  0.538E-03
 -15.880  0.508E-03  0.508E-03
 -15.870  0.468E-03  0.468E-03
 -15.860  0.425E-03  0.425E-03
 -15.850  0.380E-03  0.380E-03
 -15.840  0.339E-03  0.339E-03
 -15.830  0.304E-03  0.304E-03
 -15.820  0.278E-03  0.278E-03
 -15.810  0.260E-03  0.260E-03
 -15.800  0.250E-03  0.250E-03
 -15.790  0.247E-03  0.247E-03
 -15.780  0.246E-03  0.246E-03
 -15.770  0.247E-03  0.247E-03
 -15.760  0.247E-03  0.247E-03
 -15.750  0.245E-03  0.245E-03
 -15.740  0.241E-03  0.241E-03
 -15.730  0.237E-03  0.237E-03
 -15.720  0.237E-03  0.237E-03
 -15.710  0.242E-03  0.242E-03
 -15.700  0.254E-03  0.254E-03
 -15.690  0.273E-03  0.273E-03
 -15.680  0.298E-03  0.298E-03
 -15.670  0.326E-03  0.326E-03
 -15.660  0.352E-03  0.352E-03
 -15.650  0.373E-03  0.373E-03
 -15.640  0.384E-03  0.384E-03
 -15.630  0.385E-03  0.385E-03
 -15.620  0.374E-03  0.374E-03
 -15.610  0.354E-03  0.354E-03
 -15.600  0.327E-03  0.327E-03
 -15.590  0.296E-03  0.296E-03
 -15.580  0.265E-03  0.265E-03
 -15.570  0.236E-03  0.236E-03
 -15.560  0.210E-03  0.210E-03
 -15.550  0.189E-03  0.189E-03
 -15.540  0.173E-03  0.173E-03
 -15.530  0.161E-03  0.161E-03
 -15.520  0.154E-03  0.154E-03
 -15.510  0.151E-03  0.151E-03
 -15.500  0.150E-03  0.150E-03
 -15.490  0.152E-03  0.152E-03
 -15.480  0.155E-03  0.155E-03
 -15.470  0.158E-03  0.158E-03
 -15.460  0.161E-03  0.161E-03
 -15.450  0.165E-03  0.165E-03
 -15.440  0.171E-03  0.171E-03
 -15.430  0.179E-03  0.179E-03
 -15.420  0.190E-03  0.190E-03
 -15.410  0.204E-03  0.204E-03
 -15.400  0.220E-03  0.220E-03
 -15.390  0.235E-03  0.235E-03
 -15.380  0.248E-03  0.248E-03
 -15.370  0.256E-03  0.256E-03
 -15.360  0.257E-03  0.257E-03
 -15.350  0.251E-03  0.251E-03
 -15.340  0.238E-03  0.238E-03
 -15.330  0.220E-03  0.220E-03
 -15.320  0.199E-03  0.199E-03
 -15.310  0.178E-03  0.178E-03
 -15.300  0.158E-03  0.158E-03
 -15.290  0.140E-03  0.140E-03
 -15.280  0.125E-03  0.125E-03
 -15.270  0.114E-03  0.114E-03
 -15.260  0.105E-03  0.105E-03
 -15.250  0.988E-04  0.988E-04
 -15.240  0.944E-04  0.944E-04
 -15.230  0.914E-04  0.914E-04
 -15.220  0.896E-04  0.896E-04
 -15.210  0.888E-04  0.888E-04
 -15.200  0.890E-04  0.890E-04
 -15.190  0.904E-04  0.904E-04
 -15.180  0.934E-04  0.934E-04
 -15.170  0.983E-04  0.983E-04
 -15.160  0.105E-03  0.105E-03
 -15.150  0.115E-03  0.115E-03
 -15.140  0.126E-03  0.126E-03
 -15.130  0.138E-03  0.138E-03
 -15.120  0.149E-03  0.149E-03
 -15.110  0.158E-03  0.158E-03
 -15.100  0.163E-03  0.163E-03
 -15.090  0.163E-03  0.163E-03
 -15.080  0.158E-03  0.158E-03
 -15.070  0.149E-03  0.149E-03
 -15.060  0.137E-03  0.137E-03
 -15.050  0.122E-03  0.122E-03
 -15.040  0.107E-03  0.107E-03
 -15.030  0.920E-04  0.920E-04
 -15.020  0.788E-04  0.788E-04
 -15.010  0.675E-04  0.675E-04
 -15.000  0.583E-04  0.583E-04
 -14.990  0.509E-04  0.509E-04
 -14.980  0.451E-04  0.451E-04
 -14.970  0.405E-04  0.405E-04
 -14.960  0.369E-04  0.369E-04
 -14.950  0.341E-04  0.341E-04
 -14.940  0.323E-04  0.323E-04
 -14.930  0.314E-04  0.314E-04
 -14.920  0.317E-04  0.317E-04
 -14.910  0.335E-04  0.335E-04
 -14.900  0.370E-04  0.370E-04
 -14.890  0.422E-04  0.422E-04
 -14.880  0.490E-04  0.490E-04
 -14.870  0.571E-04  0.571E-04
 -14.860  0.659E-04  0.659E-04
 -14.850  0.744E-04  0.744E-04
 -14.840  0.817E-04  0.817E-04
 -14.830  0.868E-04  0.868E-04
 -14.820  0.891E-04  0.891E-04
 -14.810  0.883E-04  0.883E-04
 -14.800  0.843E-04  0.843E-04
 -14.790  0.777E-04  0.777E-04
 -14.780  0.694E-04  0.694E-04
 -14.770  0.602E-04  0.602E-04
 -14.760  0.508E-04  0.508E-04
 -14.750  0.421E-04  0.421E-04
 -14.740  0.342E-04  0.342E-04
 -14.730  0.274E-04  0.274E-04
 -14.720  0.215E-04  0.215E-04
 -14.710  0.164E-04  0.164E-04
 -14.700  0.120E-04  0.120E-04
 -14.690  0.828E-05  0.828E-05
 -14.680  0.523E-05  0.523E-05
 -14.670  0.302E-05  0.302E-05
 -14.660  0.188E-05  0.188E-05
 -14.650  0.204E-05  0.204E-05
 -14.640  0.372E-05  0.372E-05
 -14.630  0.707E-05  0.707E-05
 -14.620  0.121E-04  0.121E-04
 -14.610  0.188E-04  0.188E-04
 -14.600  0.267E-04  0.267E-04
 -14.590  0.354E-04  0.354E-04
 -14.580  0.441E-04  0.441E-04
 -14.570  0.518E-04  0.518E-04
 -14.560  0.577E-04  0.577E-04
 -14.550  0.609E-04  0.609E-04
 -14.540  0.608E-04  0.608E-04
 -14.530  0.573E-04  0.573E-04
 -14.520  0.507E-04  0.507E-04
 -14.510  0.418E-04  0.418E-04
 -14.500  0.317E-04  0.317E-04
 -14.490  0.215E-04  0.215E-04
 -14.480  0.121E-04  0.121E-04
 -14.470  0.446E-05  0.446E-05
 -14.460 -0.114E-05 -0.114E-05
 -14.450 -0.464E-05 -0.464E-05
 -14.440 -0.628E-05 -0.628E-05
 -14.430 -0.645E-05 -0.645E-05
 -14.420 -0.558E-05 -0.558E-05
 -14.410 -0.405E-05 -0.405E-05
 -14.400 -0.211E-05 -0.211E-05
 -14.390  0.113E-06  0.113E-06
 -14.380  0.262E-05  0.262E-05
 -14.370  0.546E-05  0.546E-05
 -14.360  0.871E-05  0.871E-05
 -14.350  0.124E-04  0.124E-04
 -14.340  0.164E-04  0.164E-04
 -14.330  0.205E-04  0.205E-04
 -14.320  0.244E-04  0.244E-04
 -14.310  0.276E-04  0.276E-04
 -14.300  0.296E-04  0.296E-04
 -14.290  0.301E-04  0.301E-04
 -14.280  0.288E-04  0.288E-04
 -14.270  0.259E-04  0.259E-04
 -14.260  0.217E-04  0.217E-04
 -14.250  0.166E-04  0.166E-04
 -14.240  0.113E-04  0.113E-04
 -14.230  0.640E-05  0.640E-05
 -14.220  0.232E-05  0.232E-05
 -14.210 -0.666E-06 -0.666E-06
 -14.200 -0.250E-05 -0.250E-05
 -14.190 -0.331E-05 -0.331E-05
 -14.180 -0.332E-05 -0.332E-05
 -14.170 -0.278E-05 -0.278E-05
 -14.160 -0.192E-05 -0.192E-05
 -14.150 -0.923E-06 -0.923E-06
 -14.140  0.128E-06  0.128E-06
 -14.130  0.120E-05  0.120E-05
 -14.120  0.229E-05  0.229E-05
 -14.110  0.344E-05  0.344E-05
 -14.100  0.466E-05  0.466E-05
 -14.090  0.596E-05  0.596E-05
 -14.080  0.729E-05  0.729E-05
 -14.070  0.856E-05  0.856E-05
 -14.060  0.966E-05  0.966E-05
 -14.050  0.105E-04  0.105E-04
 -14.040  0.108E-04  0.108E-04
 -14.030  0.107E-04  0.107E-04
 -14.020  0.100E-04  0.100E-04
 -14.010  0.894E-05  0.894E-05
 -14.000  0.762E-05  0.762E-05
 -13.990  0.632E-05  0.632E-05
 -13.980  0.532E-05  0.532E-05
 -13.970  0.489E-05  0.489E-05
 -13.960  0.528E-05  0.528E-05
 -13.950  0.665E-05  0.665E-05
