# E (eV)   ldos(E)   pdos(E)   
 -20.380  0.104E-07  0.104E-07
 -20.370  0.305E-07  0.305E-07
 -20.360  0.857E-07  0.857E-07
 -20.350  0.230E-06  0.230E-06
 -20.340  0.593E-06  0.593E-06
 -20.330  0.146E-05  0.146E-05
 -20.320  0.346E-05  0.346E-05
 -20.310  0.785E-05  0.785E-05
 -20.300  0.171E-04  0.171E-04
 -20.290  0.355E-04  0.355E-04
 -20.280  0.710E-04  0.710E-04
 -20.270  0.136E-03  0.136E-03
 -20.260  0.250E-03  0.250E-03
 -20.250  0.440E-03  0.440E-03
 -20.240  0.743E-03  0.743E-03
 -20.230  0.121E-02  0.121E-02
 -20.220  0.188E-02  0.188E-02
 -20.210  0.281E-02  0.281E-02
 -20.200  0.404E-02  0.404E-02
 -20.190  0.559E-02  0.559E-02
 -20.180  0.743E-02  0.743E-02
 -20.170  0.953E-02  0.953E-02
 -20.160  0.118E-01  0.118E-01
 -20.150  0.141E-01  0.141E-01
 -20.140  0.163E-01  0.163E-01
 -20.130  0.183E-01  0.183E-01
 -20.120  0.199E-01  0.199E-01
 -20.110  0.212E-01  0.212E-01
 -20.100  0.221E-01  0.221E-01
 -20.090  0.226E-01  0.226E-01
 -20.080  0.228E-01  0.228E-01
 -20.070  0.228E-01  0.228E-01
 -20.060  0.228E-01  0.228E-01
 -20.050  0.228E-01  0.228E-01
 -20.040  0.230E-01  0.230E-01
 -20.030  0.235E-01  0.235E-01
 -20.020  0.245E-01  0.245E-01
 -20.010  0.262E-01  0.262E-01
 -20.000  0.288E-01  0.288E-01
 -19.990  0.328E-01  0.328E-01
 -19.980  0.383E-01  0.383E-01
 -19.970  0.457E-01  0.457E-01
 -19.960  0.551E-01  0.551E-01
 -19.950  0.663E-01  0.663E-01
 -19.940  0.791E-01  0.791E-01
 -19.930  0.930E-01  0.930E-01
 -19.920  0.107E+00  0.107E+00
 -19.910  0.121E+00  0.121E+00
 -19.900  0.133E+00  0.133E+00
 -19.890  0.143E+00  0.143E+00
 -19.880  0.150E+00  0.150E+00
 -19.870  0.155E+00  0.155E+00
 -19.860  0.157E+00  0.157E+00
 -19.850  0.157E+00  0.157E+00
 -19.840  0.156E+00  0.156E+00
 -19.830  0.153E+00  0.153E+00
 -19.820  0.150E+00  0.150E+00
 -19.810  0.147E+00  0.147E+00
 -19.800  0.145E+00  0.145E+00
 -19.790  0.142E+00  0.142E+00
 -19.780  0.140E+00  0.140E+00
 -19.770  0.139E+00  0.139E+00
 -19.760  0.137E+00  0.137E+00
 -19.750  0.136E+00  0.136E+00
 -19.740  0.135E+00  0.135E+00
 -19.730  0.134E+00  0.134E+00
 -19.720  0.133E+00  0.133E+00
 -19.710  0.132E+00  0.132E+00
 -19.700  0.131E+00  0.131E+00
 -19.690  0.130E+00  0.130E+00
 -19.680  0.130E+00  0.130E+00
 -19.670  0.129E+00  0.129E+00
 -19.660  0.128E+00  0.128E+00
 -19.650  0.127E+00  0.127E+00
 -19.640  0.126E+00  0.126E+00
 -19.630  0.125E+00  0.125E+00
 -19.620  0.124E+00  0.124E+00
 -19.610  0.123E+00  0.123E+00
 -19.600  0.123E+00  0.123E+00
 -19.590  0.123E+00  0.123E+00
 -19.580  0.122E+00  0.122E+00
 -19.570  0.121E+00  0.121E+00
 -19.560  0.120E+00  0.120E+00
 -19.550  0.119E+00  0.119E+00
 -19.540  0.118E+00  0.118E+00
 -19.530  0.117E+00  0.117E+00
 -19.520  0.116E+00  0.116E+00
 -19.510  0.116E+00  0.116E+00
 -19.500  0.116E+00  0.116E+00
 -19.490  0.116E+00  0.116E+00
 -19.480  0.116E+00  0.116E+00
 -19.470  0.115E+00  0.115E+00
 -19.460  0.114E+00  0.114E+00
 -19.450  0.113E+00  0.113E+00
 -19.440  0.112E+00  0.112E+00
 -19.430  0.111E+00  0.111E+00
 -19.420  0.110E+00  0.110E+00
 -19.410  0.110E+00  0.110E+00
 -19.400  0.109E+00  0.109E+00
 -19.390  0.109E+00  0.109E+00
 -19.380  0.109E+00  0.109E+00
 -19.370  0.109E+00  0.109E+00
 -19.360  0.108E+00  0.108E+00
 -19.350  0.108E+00  0.108E+00
 -19.340  0.107E+00  0.107E+00
 -19.330  0.106E+00  0.106E+00
 -19.320  0.105E+00  0.105E+00
 -19.310  0.104E+00  0.104E+00
 -19.300  0.103E+00  0.103E+00
 -19.290  0.102E+00  0.102E+00
 -19.280  0.102E+00  0.102E+00
 -19.270  0.102E+00  0.102E+00
 -19.260  0.102E+00  0.102E+00
 -19.250  0.102E+00  0.102E+00
 -19.240  0.103E+00  0.103E+00
 -19.230  0.103E+00  0.103E+00
 -19.220  0.103E+00  0.103E+00
 -19.210  0.102E+00  0.102E+00
 -19.200  0.100E+00  0.100E+00
 -19.190  0.981E-01  0.981E-01
 -19.180  0.960E-01  0.960E-01
 -19.170  0.944E-01  0.944E-01
 -19.160  0.936E-01  0.936E-01
 -19.150  0.938E-01  0.938E-01
 -19.140  0.949E-01  0.949E-01
 -19.130  0.966E-01  0.966E-01
 -19.120  0.982E-01  0.982E-01
 -19.110  0.993E-01  0.993E-01
 -19.100  0.994E-01  0.994E-01
 -19.090  0.983E-01  0.983E-01
 -19.080  0.961E-01  0.961E-01
 -19.070  0.933E-01  0.933E-01
 -19.060  0.903E-01  0.903E-01
 -19.050  0.879E-01  0.879E-01
 -19.040  0.865E-01  0.865E-01
 -19.030  0.864E-01  0.864E-01
 -19.020  0.876E-01  0.876E-01
 -19.010  0.898E-01  0.898E-01
 -19.000  0.924E-01  0.924E-01
 -18.990  0.946E-01  0.946E-01
 -18.980  0.959E-01  0.959E-01
 -18.970  0.957E-01  0.957E-01
 -18.960  0.941E-01  0.941E-01
 -18.950  0.913E-01  0.913E-01
 -18.940  0.878E-01  0.878E-01
 -18.930  0.843E-01  0.843E-01
 -18.920  0.816E-01  0.816E-01
 -18.910  0.801E-01  0.801E-01
 -18.900  0.802E-01  0.802E-01
 -18.890  0.817E-01  0.817E-01
 -18.880  0.842E-01  0.842E-01
 -18.870  0.871E-01  0.871E-01
 -18.860  0.897E-01  0.897E-01
 -18.850  0.913E-01  0.913E-01
 -18.840  0.917E-01  0.917E-01
 -18.830  0.905E-01  0.905E-01
 -18.820  0.881E-01  0.881E-01
 -18.810  0.847E-01  0.847E-01
 -18.800  0.811E-01  0.811E-01
 -18.790  0.779E-01  0.779E-01
 -18.780  0.757E-01  0.757E-01
 -18.770  0.749E-01  0.749E-01
 -18.760  0.757E-01  0.757E-01
 -18.750  0.777E-01  0.777E-01
 -18.740  0.805E-01  0.805E-01
 -18.730  0.834E-01  0.834E-01
 -18.720  0.857E-01  0.857E-01
 -18.710  0.869E-01  0.869E-01
 -18.700  0.868E-01  0.868E-01
 -18.690  0.852E-01  0.852E-01
 -18.680  0.826E-01  0.826E-01
 -18.670  0.794E-01  0.794E-01
 -18.660  0.761E-01  0.761E-01
 -18.650  0.734E-01  0.734E-01
 -18.640  0.717E-01  0.717E-01
 -18.630  0.713E-01  0.713E-01
 -18.620  0.721E-01  0.721E-01
 -18.610  0.739E-01  0.739E-01
 -18.600  0.764E-01  0.764E-01
 -18.590  0.789E-01  0.789E-01
 -18.580  0.810E-01  0.810E-01
 -18.570  0.820E-01  0.820E-01
 -18.560  0.819E-01  0.819E-01
 -18.550  0.805E-01  0.805E-01
 -18.540  0.780E-01  0.780E-01
 -18.530  0.751E-01  0.751E-01
 -18.520  0.721E-01  0.721E-01
 -18.510  0.697E-01  0.697E-01
 -18.500  0.682E-01  0.682E-01
 -18.490  0.678E-01  0.678E-01
 -18.480  0.686E-01  0.686E-01
 -18.470  0.703E-01  0.703E-01
 -18.460  0.726E-01  0.726E-01
 -18.450  0.749E-01  0.749E-01
 -18.440  0.768E-01  0.768E-01
 -18.430  0.779E-01  0.779E-01
 -18.420  0.777E-01  0.777E-01
 -18.410  0.764E-01  0.764E-01
 -18.400  0.742E-01  0.742E-01
 -18.390  0.713E-01  0.713E-01
 -18.380  0.683E-01  0.683E-01
 -18.370  0.658E-01  0.658E-01
 -18.360  0.642E-01  0.642E-01
 -18.350  0.638E-01  0.638E-01
 -18.340  0.645E-01  0.645E-01
 -18.330  0.662E-01  0.662E-01
 -18.320  0.686E-01  0.686E-01
 -18.310  0.710E-01  0.710E-01
 -18.300  0.732E-01  0.732E-01
 -18.290  0.745E-01  0.745E-01
 -18.280  0.748E-01  0.748E-01
 -18.270  0.740E-01  0.740E-01
 -18.260  0.720E-01  0.720E-01
 -18.250  0.693E-01  0.693E-01
 -18.240  0.662E-01  0.662E-01
 -18.230  0.632E-01  0.632E-01
 -18.220  0.607E-01  0.607E-01
 -18.210  0.593E-01  0.593E-01
 -18.200  0.591E-01  0.591E-01
 -18.190  0.602E-01  0.602E-01
 -18.180  0.624E-01  0.624E-01
 -18.170  0.653E-01  0.653E-01
 -18.160  0.683E-01  0.683E-01
 -18.150  0.708E-01  0.708E-01
 -18.140  0.724E-01  0.724E-01
 -18.130  0.727E-01  0.727E-01
 -18.120  0.716E-01  0.716E-01
 -18.110  0.693E-01  0.693E-01
 -18.100  0.662E-01  0.662E-01
 -18.090  0.627E-01  0.627E-01
 -18.080  0.595E-01  0.595E-01
 -18.070  0.569E-01  0.569E-01
 -18.060  0.553E-01  0.553E-01
 -18.050  0.549E-01  0.549E-01
 -18.040  0.559E-01  0.559E-01
 -18.030  0.579E-01  0.579E-01
 -18.020  0.607E-01  0.607E-01
 -18.010  0.638E-01  0.638E-01
 -18.000  0.667E-01  0.667E-01
 -17.990  0.687E-01  0.687E-01
 -17.980  0.696E-01  0.696E-01
 -17.970  0.691E-01  0.691E-01
 -17.960  0.673E-01  0.673E-01
 -17.950  0.645E-01  0.645E-01
 -17.940  0.611E-01  0.611E-01
 -17.930  0.577E-01  0.577E-01
 -17.920  0.548E-01  0.548E-01
 -17.910  0.528E-01  0.528E-01
 -17.900  0.520E-01  0.520E-01
 -17.890  0.524E-01  0.524E-01
 -17.880  0.538E-01  0.538E-01
 -17.870  0.561E-01  0.561E-01
 -17.860  0.588E-01  0.588E-01
 -17.850  0.616E-01  0.616E-01
 -17.840  0.639E-01  0.639E-01
 -17.830  0.653E-01  0.653E-01
 -17.820  0.656E-01  0.656E-01
 -17.810  0.646E-01  0.646E-01
 -17.800  0.625E-01  0.625E-01
 -17.790  0.596E-01  0.596E-01
 -17.780  0.564E-01  0.564E-01
 -17.770  0.534E-01  0.534E-01
 -17.760  0.511E-01  0.511E-01
 -17.750  0.498E-01  0.498E-01
 -17.740  0.497E-01  0.497E-01
 -17.730  0.507E-01  0.507E-01
 -17.720  0.527E-01  0.527E-01
 -17.710  0.551E-01  0.551E-01
 -17.700  0.576E-01  0.576E-01
 -17.690  0.598E-01  0.598E-01
 -17.680  0.613E-01  0.613E-01
 -17.670  0.618E-01  0.618E-01
 -17.660  0.612E-01  0.612E-01
 -17.650  0.596E-01  0.596E-01
 -17.640  0.571E-01  0.571E-01
 -17.630  0.543E-01  0.543E-01
 -17.620  0.515E-01  0.515E-01
 -17.610  0.492E-01  0.492E-01
 -17.600  0.477E-01  0.477E-01
 -17.590  0.473E-01  0.473E-01
 -17.580  0.481E-01  0.481E-01
 -17.570  0.497E-01  0.497E-01
 -17.560  0.519E-01  0.519E-01
 -17.550  0.544E-01  0.544E-01
 -17.540  0.566E-01  0.566E-01
 -17.530  0.582E-01  0.582E-01
 -17.520  0.588E-01  0.588E-01
 -17.510  0.585E-01  0.585E-01
 -17.500  0.571E-01  0.571E-01
 -17.490  0.550E-01  0.550E-01
 -17.480  0.523E-01  0.523E-01
 -17.470  0.496E-01  0.496E-01
 -17.460  0.472E-01  0.472E-01
 -17.450  0.456E-01  0.456E-01
 -17.440  0.449E-01  0.449E-01
 -17.430  0.453E-01  0.453E-01
 -17.420  0.466E-01  0.466E-01
 -17.410  0.486E-01  0.486E-01
 -17.400  0.510E-01  0.510E-01
 -17.390  0.533E-01  0.533E-01
 -17.380  0.551E-01  0.551E-01
 -17.370  0.560E-01  0.560E-01
 -17.360  0.559E-01  0.559E-01
 -17.350  0.549E-01  0.549E-01
 -17.340  0.530E-01  0.530E-01
 -17.330  0.506E-01  0.506E-01
 -17.320  0.480E-01  0.480E-01
 -17.310  0.458E-01  0.458E-01
 -17.300  0.441E-01  0.441E-01
 -17.290  0.434E-01  0.434E-01
 -17.280  0.436E-01  0.436E-01
 -17.270  0.447E-01  0.447E-01
 -17.260  0.465E-01  0.465E-01
 -17.250  0.487E-01  0.487E-01
 -17.240  0.507E-01  0.507E-01
 -17.230  0.523E-01  0.523E-01
 -17.220  0.531E-01  0.531E-01
 -17.210  0.530E-01  0.530E-01
 -17.200  0.520E-01  0.520E-01
 -17.190  0.503E-01  0.503E-01
 -17.180  0.482E-01  0.482E-01
 -17.170  0.460E-01  0.460E-01
 -17.160  0.441E-01  0.441E-01
 -17.150  0.430E-01  0.430E-01
 -17.140  0.427E-01  0.427E-01
 -17.130  0.432E-01  0.432E-01
 -17.120  0.446E-01  0.446E-01
 -17.110  0.464E-01  0.464E-01
 -17.100  0.484E-01  0.484E-01
 -17.090  0.502E-01  0.502E-01
 -17.080  0.513E-01  0.513E-01
 -17.070  0.517E-01  0.517E-01
 -17.060  0.511E-01  0.511E-01
 -17.050  0.499E-01  0.499E-01
 -17.040  0.481E-01  0.481E-01
 -17.030  0.462E-01  0.462E-01
 -17.020  0.446E-01  0.446E-01
 -17.010  0.436E-01  0.436E-01
 -17.000  0.434E-01  0.434E-01
 -16.990  0.441E-01  0.441E-01
 -16.980  0.456E-01  0.456E-01
 -16.970  0.477E-01  0.477E-01
 -16.960  0.499E-01  0.499E-01
 -16.950  0.520E-01  0.520E-01
 -16.940  0.535E-01  0.535E-01
 -16.930  0.544E-01  0.544E-01
 -16.920  0.546E-01  0.546E-01
 -16.910  0.543E-01  0.543E-01
 -16.900  0.536E-01  0.536E-01
 -16.890  0.531E-01  0.531E-01
 -16.880  0.530E-01  0.530E-01
 -16.870  0.535E-01  0.535E-01
 -16.860  0.545E-01  0.545E-01
 -16.850  0.560E-01  0.560E-01
 -16.840  0.575E-01  0.575E-01
 -16.830  0.585E-01  0.585E-01
 -16.820  0.585E-01  0.585E-01
 -16.810  0.573E-01  0.573E-01
 -16.800  0.546E-01  0.546E-01
 -16.790  0.508E-01  0.508E-01
 -16.780  0.462E-01  0.462E-01
 -16.770  0.414E-01  0.414E-01
 -16.760  0.371E-01  0.371E-01
 -16.750  0.337E-01  0.337E-01
 -16.740  0.314E-01  0.314E-01
 -16.730  0.301E-01  0.301E-01
 -16.720  0.295E-01  0.295E-01
 -16.710  0.293E-01  0.293E-01
 -16.700  0.288E-01  0.288E-01
 -16.690  0.280E-01  0.280E-01
 -16.680  0.267E-01  0.267E-01
 -16.670  0.251E-01  0.251E-01
 -16.660  0.233E-01  0.233E-01
 -16.650  0.217E-01  0.217E-01
 -16.640  0.205E-01  0.205E-01
 -16.630  0.197E-01  0.197E-01
 -16.620  0.192E-01  0.192E-01
 -16.610  0.189E-01  0.189E-01
 -16.600  0.187E-01  0.187E-01
 -16.590  0.183E-01  0.183E-01
 -16.580  0.176E-01  0.176E-01
 -16.570  0.168E-01  0.168E-01
 -16.560  0.158E-01  0.158E-01
 -16.550  0.148E-01  0.148E-01
 -16.540  0.139E-01  0.139E-01
 -16.530  0.132E-01  0.132E-01
 -16.520  0.126E-01  0.126E-01
 -16.510  0.121E-01  0.121E-01
 -16.500  0.117E-01  0.117E-01
 -16.490  0.113E-01  0.113E-01
 -16.480  0.107E-01  0.107E-01
 -16.470  0.102E-01  0.102E-01
 -16.460  0.956E-02  0.956E-02
 -16.450  0.895E-02  0.895E-02
 -16.440  0.837E-02  0.837E-02
 -16.430  0.783E-02  0.783E-02
 -16.420  0.733E-02  0.733E-02
 -16.410  0.686E-02  0.686E-02
 -16.400  0.640E-02  0.640E-02
 -16.390  0.594E-02  0.594E-02
 -16.380  0.547E-02  0.547E-02
 -16.370  0.500E-02  0.500E-02
 -16.360  0.453E-02  0.453E-02
 -16.350  0.407E-02  0.407E-02
 -16.340  0.362E-02  0.362E-02
 -16.330  0.319E-02  0.319E-02
 -16.320  0.277E-02  0.277E-02
 -16.310  0.237E-02  0.237E-02
 -16.300  0.198E-02  0.198E-02
 -16.290  0.161E-02  0.161E-02
 -16.280  0.126E-02  0.126E-02
 -16.270  0.943E-03  0.943E-03
 -16.260  0.661E-03  0.661E-03
 -16.250  0.419E-03  0.419E-03
 -16.240  0.222E-03  0.222E-03
 -16.230  0.683E-04  0.683E-04
 -16.220 -0.412E-04 -0.412E-04
 -16.210 -0.110E-03 -0.110E-03
 -16.200 -0.145E-03 -0.145E-03
 -16.190 -0.152E-03 -0.152E-03
 -16.180 -0.139E-03 -0.139E-03
 -16.170 -0.114E-03 -0.114E-03
 -16.160 -0.839E-04 -0.839E-04
 -16.150 -0.540E-04 -0.540E-04
 -16.140 -0.277E-04 -0.277E-04
 -16.130 -0.666E-05 -0.666E-05
 -16.120  0.879E-05  0.879E-05
 -16.110  0.193E-04  0.193E-04
 -16.100  0.261E-04  0.261E-04
 -16.090  0.302E-04  0.302E-04
 -16.080  0.326E-04  0.326E-04
 -16.070  0.338E-04  0.338E-04
 -16.060  0.341E-04  0.341E-04
 -16.050  0.335E-04  0.335E-04
 -16.040  0.322E-04  0.322E-04
 -16.030  0.305E-04  0.305E-04
 -16.020  0.285E-04  0.285E-04
 -16.010  0.267E-04  0.267E-04
 -16.000  0.254E-04  0.254E-04
 -15.990  0.251E-04  0.251E-04
 -15.980  0.259E-04  0.259E-04
 -15.970  0.277E-04  0.277E-04
 -15.960  0.303E-04  0.303E-04
 -15.950  0.334E-04  0.334E-04
 -15.940  0.365E-04  0.365E-04
 -15.930  0.392E-04  0.392E-04
 -15.920  0.411E-04  0.411E-04
 -15.910  0.418E-04  0.418E-04
 -15.900  0.413E-04  0.413E-04
 -15.890  0.397E-04  0.397E-04
 -15.880  0.372E-04  0.372E-04
 -15.870  0.340E-04  0.340E-04
 -15.860  0.306E-04  0.306E-04
 -15.850  0.271E-04  0.271E-04
 -15.840  0.239E-04  0.239E-04
 -15.830  0.213E-04  0.213E-04
 -15.820  0.193E-04  0.193E-04
 -15.810  0.180E-04  0.180E-04
 -15.800  0.173E-04  0.173E-04
 -15.790  0.171E-04  0.171E-04
 -15.780  0.171E-04  0.171E-04
 -15.770  0.171E-04  0.171E-04
 -15.760  0.170E-04  0.170E-04
 -15.750  0.167E-04  0.167E-04
 -15.740  0.162E-04  0.162E-04
 -15.730  0.156E-04  0.156E-04
 -15.720  0.151E-04  0.151E-04
 -15.710  0.148E-04  0.148E-04
 -15.700  0.150E-04  0.150E-04
 -15.690  0.157E-04  0.157E-04
 -15.680  0.167E-04  0.167E-04
 -15.670  0.180E-04  0.180E-04
 -15.660  0.193E-04  0.193E-04
 -15.650  0.204E-04  0.204E-04
 -15.640  0.211E-04  0.211E-04
 -15.630  0.212E-04  0.212E-04
 -15.620  0.206E-04  0.206E-04
 -15.610  0.196E-04  0.196E-04
 -15.600  0.182E-04  0.182E-04
 -15.590  0.166E-04  0.166E-04
 -15.580  0.149E-04  0.149E-04
 -15.570  0.134E-04  0.134E-04
 -15.560  0.121E-04  0.121E-04
 -15.550  0.110E-04  0.110E-04
 -15.540  0.103E-04  0.103E-04
 -15.530  0.981E-05  0.981E-05
 -15.520  0.966E-05  0.966E-05
 -15.510  0.974E-05  0.974E-05
 -15.500  0.998E-05  0.998E-05
 -15.490  0.103E-04  0.103E-04
 -15.480  0.105E-04  0.105E-04
 -15.470  0.106E-04  0.106E-04
 -15.460  0.106E-04  0.106E-04
 -15.450  0.104E-04  0.104E-04
 -15.440  0.102E-04  0.102E-04
 -15.430  0.100E-04  0.100E-04
 -15.420  0.996E-05  0.996E-05
 -15.410  0.101E-04  0.101E-04
 -15.400  0.105E-04  0.105E-04
 -15.390  0.111E-04  0.111E-04
 -15.380  0.117E-04  0.117E-04
 -15.370  0.123E-04  0.123E-04
 -15.360  0.127E-04  0.127E-04
 -15.350  0.129E-04  0.129E-04
 -15.340  0.128E-04  0.128E-04
 -15.330  0.124E-04  0.124E-04
 -15.320  0.119E-04  0.119E-04
 -15.310  0.113E-04  0.113E-04
 -15.300  0.108E-04  0.108E-04
 -15.290  0.103E-04  0.103E-04
 -15.280  0.100E-04  0.100E-04
 -15.270  0.989E-05  0.989E-05
 -15.260  0.997E-05  0.997E-05
 -15.250  0.102E-04  0.102E-04
 -15.240  0.105E-04  0.105E-04
 -15.230  0.109E-04  0.109E-04
 -15.220  0.113E-04  0.113E-04
 -15.210  0.116E-04  0.116E-04
 -15.200  0.119E-04  0.119E-04
 -15.190  0.120E-04  0.120E-04
 -15.180  0.121E-04  0.121E-04
 -15.170  0.122E-04  0.122E-04
 -15.160  0.125E-04  0.125E-04
 -15.150  0.129E-04  0.129E-04
 -15.140  0.135E-04  0.135E-04
 -15.130  0.143E-04  0.143E-04
 -15.120  0.152E-04  0.152E-04
 -15.110  0.163E-04  0.163E-04
 -15.100  0.173E-04  0.173E-04
 -15.090  0.183E-04  0.183E-04
 -15.080  0.193E-04  0.193E-04
 -15.070  0.201E-04  0.201E-04
 -15.060  0.210E-04  0.210E-04
 -15.050  0.216E-04  0.216E-04
 -15.040  0.221E-04  0.221E-04
 -15.030  0.224E-04  0.224E-04
 -15.020  0.223E-04  0.223E-04
 -15.010  0.219E-04  0.219E-04
 -15.000  0.212E-04  0.212E-04
 -14.990  0.202E-04  0.202E-04
 -14.980  0.189E-04  0.189E-04
 -14.970  0.176E-04  0.176E-04
 -14.960  0.161E-04  0.161E-04
 -14.950  0.148E-04  0.148E-04
 -14.940  0.135E-04  0.135E-04
 -14.930  0.124E-04  0.124E-04
 -14.920  0.116E-04  0.116E-04
 -14.910  0.110E-04  0.110E-04
 -14.900  0.107E-04  0.107E-04
 -14.890  0.106E-04  0.106E-04
 -14.880  0.106E-04  0.106E-04
 -14.870  0.107E-04  0.107E-04
 -14.860  0.106E-04  0.106E-04
 -14.850  0.104E-04  0.104E-04
 -14.840  0.987E-05  0.987E-05
 -14.830  0.918E-05  0.918E-05
 -14.820  0.839E-05  0.839E-05
 -14.810  0.765E-05  0.765E-05
 -14.800  0.712E-05  0.712E-05
 -14.790  0.692E-05  0.692E-05
 -14.780  0.712E-05  0.712E-05
 -14.770  0.768E-05  0.768E-05
 -14.760  0.852E-05  0.852E-05
 -14.750  0.945E-05  0.945E-05
 -14.740  0.103E-04  0.103E-04
 -14.730  0.109E-04  0.109E-04
 -14.720  0.110E-04  0.110E-04
 -14.710  0.106E-04  0.106E-04
 -14.700  0.972E-05  0.972E-05
 -14.690  0.844E-05  0.844E-05
 -14.680  0.692E-05  0.692E-05
 -14.670  0.536E-05  0.536E-05
 -14.660  0.395E-05  0.395E-05
 -14.650  0.289E-05  0.289E-05
 -14.640  0.227E-05  0.227E-05
 -14.630  0.216E-05  0.216E-05
 -14.620  0.254E-05  0.254E-05
 -14.610  0.334E-05  0.334E-05
 -14.600  0.447E-05  0.447E-05
 -14.590  0.582E-05  0.582E-05
 -14.580  0.724E-05  0.724E-05
 -14.570  0.862E-05  0.862E-05
 -14.560  0.979E-05  0.979E-05
 -14.550  0.106E-04  0.106E-04
 -14.540  0.110E-04  0.110E-04
 -14.530  0.109E-04  0.109E-04
 -14.520  0.102E-04  0.102E-04
 -14.510  0.909E-05  0.909E-05
 -14.500  0.761E-05  0.761E-05
 -14.490  0.597E-05  0.597E-05
 -14.480  0.437E-05  0.437E-05
 -14.470  0.299E-05  0.299E-05
 -14.460  0.196E-05  0.196E-05
 -14.450  0.131E-05  0.131E-05
 -14.440  0.106E-05  0.106E-05
 -14.430  0.112E-05  0.112E-05
 -14.420  0.144E-05  0.144E-05
 -14.410  0.193E-05  0.193E-05
 -14.400  0.253E-05  0.253E-05
 -14.390  0.321E-05  0.321E-05
 -14.380  0.396E-05  0.396E-05
 -14.370  0.478E-05  0.478E-05
 -14.360  0.564E-05  0.564E-05
 -14.350  0.651E-05  0.651E-05
 -14.340  0.734E-05  0.734E-05
 -14.330  0.804E-05  0.804E-05
 -14.320  0.853E-05  0.853E-05
 -14.310  0.873E-05  0.873E-05
 -14.300  0.861E-05  0.861E-05
 -14.290  0.814E-05  0.814E-05
 -14.280  0.736E-05  0.736E-05
 -14.270  0.635E-05  0.635E-05
 -14.260  0.523E-05  0.523E-05
 -14.250  0.410E-05  0.410E-05
 -14.240  0.309E-05  0.309E-05
 -14.230  0.227E-05  0.227E-05
 -14.220  0.168E-05  0.168E-05
 -14.210  0.133E-05  0.133E-05
 -14.200  0.120E-05  0.120E-05
 -14.190  0.124E-05  0.124E-05
 -14.180  0.141E-05  0.141E-05
 -14.170  0.169E-05  0.169E-05
 -14.160  0.206E-05  0.206E-05
 -14.150  0.251E-05  0.251E-05
 -14.140  0.302E-05  0.302E-05
 -14.130  0.357E-05  0.357E-05
 -14.120  0.413E-05  0.413E-05
 -14.110  0.467E-05  0.467E-05
 -14.100  0.517E-05  0.517E-05
 -14.090  0.559E-05  0.559E-05
 -14.080  0.590E-05  0.590E-05
 -14.070  0.610E-05  0.610E-05
 -14.060  0.616E-05  0.616E-05
 -14.050  0.607E-05  0.607E-05
 -14.040  0.582E-05  0.582E-05
 -14.030  0.543E-05  0.543E-05
 -14.020  0.490E-05  0.490E-05
 -14.010  0.430E-05  0.430E-05
 -14.000  0.366E-05  0.366E-05
 -13.990  0.305E-05  0.305E-05
 -13.980  0.253E-05  0.253E-05
 -13.970  0.214E-05  0.214E-05
 -13.960  0.191E-05  0.191E-05
 -13.950  0.185E-05  0.185E-05
