# E (eV)   ldos(E)   pdos(E)   
 -20.380  0.675E-07  0.675E-07
 -20.370  0.198E-06  0.198E-06
 -20.360  0.554E-06  0.554E-06
 -20.350  0.149E-05  0.149E-05
 -20.340  0.383E-05  0.383E-05
 -20.330  0.946E-05  0.946E-05
 -20.320  0.224E-04  0.224E-04
 -20.310  0.507E-04  0.507E-04
 -20.300  0.110E-03  0.110E-03
 -20.290  0.229E-03  0.229E-03
 -20.280  0.458E-03  0.458E-03
 -20.270  0.876E-03  0.876E-03
 -20.260  0.161E-02  0.161E-02
 -20.250  0.283E-02  0.283E-02
 -20.240  0.478E-02  0.478E-02
 -20.230  0.774E-02  0.774E-02
 -20.220  0.120E-01  0.120E-01
 -20.210  0.180E-01  0.180E-01
 -20.200  0.258E-01  0.258E-01
 -20.190  0.357E-01  0.357E-01
 -20.180  0.474E-01  0.474E-01
 -20.170  0.606E-01  0.606E-01
 -20.160  0.748E-01  0.748E-01
 -20.150  0.890E-01  0.890E-01
 -20.140  0.103E+00  0.103E+00
 -20.130  0.115E+00  0.115E+00
 -20.120  0.124E+00  0.124E+00
 -20.110  0.131E+00  0.131E+00
 -20.100  0.136E+00  0.136E+00
 -20.090  0.138E+00  0.138E+00
 -20.080  0.138E+00  0.138E+00
 -20.070  0.137E+00  0.137E+00
 -20.060  0.135E+00  0.135E+00
 -20.050  0.132E+00  0.132E+00
 -20.040  0.130E+00  0.130E+00
 -20.030  0.127E+00  0.127E+00
 -20.020  0.126E+00  0.126E+00
 -20.010  0.124E+00  0.124E+00
 -20.000  0.124E+00  0.124E+00
 -19.990  0.123E+00  0.123E+00
 -19.980  0.123E+00  0.123E+00
 -19.970  0.124E+00  0.124E+00
 -19.960  0.125E+00  0.125E+00
 -19.950  0.127E+00  0.127E+00
 -19.940  0.129E+00  0.129E+00
 -19.930  0.131E+00  0.131E+00
 -19.920  0.133E+00  0.133E+00
 -19.910  0.136E+00  0.136E+00
 -19.900  0.138E+00  0.138E+00
 -19.890  0.139E+00  0.139E+00
 -19.880  0.141E+00  0.141E+00
 -19.870  0.141E+00  0.141E+00
 -19.860  0.142E+00  0.142E+00
 -19.850  0.142E+00  0.142E+00
 -19.840  0.141E+00  0.141E+00
 -19.830  0.140E+00  0.140E+00
 -19.820  0.139E+00  0.139E+00
 -19.810  0.139E+00  0.139E+00
 -19.800  0.138E+00  0.138E+00
 -19.790  0.137E+00  0.137E+00
 -19.780  0.137E+00  0.137E+00
 -19.770  0.137E+00  0.137E+00
 -19.760  0.136E+00  0.136E+00
 -19.750  0.136E+00  0.136E+00
 -19.740  0.135E+00  0.135E+00
 -19.730  0.134E+00  0.134E+00
 -19.720  0.134E+00  0.134E+00
 -19.710  0.133E+00  0.133E+00
 -19.700  0.133E+00  0.133E+00
 -19.690  0.134E+00  0.134E+00
 -19.680  0.134E+00  0.134E+00
 -19.670  0.134E+00  0.134E+00
 -19.660  0.133E+00  0.133E+00
 -19.650  0.132E+00  0.132E+00
 -19.640  0.131E+00  0.131E+00
 -19.630  0.130E+00  0.130E+00
 -19.620  0.129E+00  0.129E+00
 -19.610  0.130E+00  0.130E+00
 -19.600  0.130E+00  0.130E+00
 -19.590  0.131E+00  0.131E+00
 -19.580  0.131E+00  0.131E+00
 -19.570  0.131E+00  0.131E+00
 -19.560  0.131E+00  0.131E+00
 -19.550  0.129E+00  0.129E+00
 -19.540  0.128E+00  0.128E+00
 -19.530  0.126E+00  0.126E+00
 -19.520  0.125E+00  0.125E+00
 -19.510  0.126E+00  0.126E+00
 -19.500  0.126E+00  0.126E+00
 -19.490  0.128E+00  0.128E+00
 -19.480  0.129E+00  0.129E+00
 -19.470  0.129E+00  0.129E+00
 -19.460  0.129E+00  0.129E+00
 -19.450  0.127E+00  0.127E+00
 -19.440  0.126E+00  0.126E+00
 -19.430  0.124E+00  0.124E+00
 -19.420  0.123E+00  0.123E+00
 -19.410  0.122E+00  0.122E+00
 -19.400  0.122E+00  0.122E+00
 -19.390  0.123E+00  0.123E+00
 -19.380  0.124E+00  0.124E+00
 -19.370  0.125E+00  0.125E+00
 -19.360  0.126E+00  0.126E+00
 -19.350  0.126E+00  0.126E+00
 -19.340  0.126E+00  0.126E+00
 -19.330  0.124E+00  0.124E+00
 -19.320  0.123E+00  0.123E+00
 -19.310  0.121E+00  0.121E+00
 -19.300  0.119E+00  0.119E+00
 -19.290  0.118E+00  0.118E+00
 -19.280  0.118E+00  0.118E+00
 -19.270  0.119E+00  0.119E+00
 -19.260  0.120E+00  0.120E+00
 -19.250  0.122E+00  0.122E+00
 -19.240  0.124E+00  0.124E+00
 -19.230  0.125E+00  0.125E+00
 -19.220  0.125E+00  0.125E+00
 -19.210  0.123E+00  0.123E+00
 -19.200  0.121E+00  0.121E+00
 -19.190  0.118E+00  0.118E+00
 -19.180  0.116E+00  0.116E+00
 -19.170  0.114E+00  0.114E+00
 -19.160  0.113E+00  0.113E+00
 -19.150  0.114E+00  0.114E+00
 -19.140  0.116E+00  0.116E+00
 -19.130  0.118E+00  0.118E+00
 -19.120  0.121E+00  0.121E+00
 -19.110  0.123E+00  0.123E+00
 -19.100  0.124E+00  0.124E+00
 -19.090  0.124E+00  0.124E+00
 -19.080  0.121E+00  0.121E+00
 -19.070  0.118E+00  0.118E+00
 -19.060  0.114E+00  0.114E+00
 -19.050  0.111E+00  0.111E+00
 -19.040  0.108E+00  0.108E+00
 -19.030  0.108E+00  0.108E+00
 -19.020  0.109E+00  0.109E+00
 -19.010  0.112E+00  0.112E+00
 -19.000  0.116E+00  0.116E+00
 -18.990  0.120E+00  0.120E+00
 -18.980  0.123E+00  0.123E+00
 -18.970  0.124E+00  0.124E+00
 -18.960  0.124E+00  0.124E+00
 -18.950  0.121E+00  0.121E+00
 -18.940  0.117E+00  0.117E+00
 -18.930  0.112E+00  0.112E+00
 -18.920  0.107E+00  0.107E+00
 -18.910  0.104E+00  0.104E+00
 -18.900  0.103E+00  0.103E+00
 -18.890  0.104E+00  0.104E+00
 -18.880  0.107E+00  0.107E+00
 -18.870  0.111E+00  0.111E+00
 -18.860  0.116E+00  0.116E+00
 -18.850  0.120E+00  0.120E+00
 -18.840  0.123E+00  0.123E+00
 -18.830  0.124E+00  0.124E+00
 -18.820  0.123E+00  0.123E+00
 -18.810  0.120E+00  0.120E+00
 -18.800  0.115E+00  0.115E+00
 -18.790  0.109E+00  0.109E+00
 -18.780  0.104E+00  0.104E+00
 -18.770  0.999E-01  0.999E-01
 -18.760  0.980E-01  0.980E-01
 -18.750  0.986E-01  0.986E-01
 -18.740  0.101E+00  0.101E+00
 -18.730  0.106E+00  0.106E+00
 -18.720  0.111E+00  0.111E+00
 -18.710  0.117E+00  0.117E+00
 -18.700  0.121E+00  0.121E+00
 -18.690  0.123E+00  0.123E+00
 -18.680  0.124E+00  0.124E+00
 -18.670  0.122E+00  0.122E+00
 -18.660  0.118E+00  0.118E+00
 -18.650  0.113E+00  0.113E+00
 -18.640  0.107E+00  0.107E+00
 -18.630  0.102E+00  0.102E+00
 -18.620  0.970E-01  0.970E-01
 -18.610  0.942E-01  0.942E-01
 -18.600  0.936E-01  0.936E-01
 -18.590  0.953E-01  0.953E-01
 -18.580  0.992E-01  0.992E-01
 -18.570  0.105E+00  0.105E+00
 -18.560  0.111E+00  0.111E+00
 -18.550  0.117E+00  0.117E+00
 -18.540  0.121E+00  0.121E+00
 -18.530  0.124E+00  0.124E+00
 -18.520  0.124E+00  0.124E+00
 -18.510  0.121E+00  0.121E+00
 -18.500  0.117E+00  0.117E+00
 -18.490  0.111E+00  0.111E+00
 -18.480  0.105E+00  0.105E+00
 -18.470  0.997E-01  0.997E-01
 -18.460  0.951E-01  0.951E-01
 -18.450  0.920E-01  0.920E-01
 -18.440  0.906E-01  0.906E-01
 -18.430  0.909E-01  0.909E-01
 -18.420  0.931E-01  0.931E-01
 -18.410  0.971E-01  0.971E-01
 -18.400  0.102E+00  0.102E+00
 -18.390  0.109E+00  0.109E+00
 -18.380  0.115E+00  0.115E+00
 -18.370  0.120E+00  0.120E+00
 -18.360  0.124E+00  0.124E+00
 -18.350  0.125E+00  0.125E+00
 -18.340  0.123E+00  0.123E+00
 -18.330  0.118E+00  0.118E+00
 -18.320  0.112E+00  0.112E+00
 -18.310  0.105E+00  0.105E+00
 -18.300  0.978E-01  0.978E-01
 -18.290  0.919E-01  0.919E-01
 -18.280  0.877E-01  0.877E-01
 -18.270  0.858E-01  0.858E-01
 -18.260  0.859E-01  0.859E-01
 -18.250  0.881E-01  0.881E-01
 -18.240  0.918E-01  0.918E-01
 -18.230  0.967E-01  0.967E-01
 -18.220  0.102E+00  0.102E+00
 -18.210  0.108E+00  0.108E+00
 -18.200  0.114E+00  0.114E+00
 -18.190  0.119E+00  0.119E+00
 -18.180  0.122E+00  0.122E+00
 -18.170  0.124E+00  0.124E+00
 -18.160  0.123E+00  0.123E+00
 -18.150  0.119E+00  0.119E+00
 -18.140  0.114E+00  0.114E+00
 -18.130  0.107E+00  0.107E+00
 -18.120  0.989E-01  0.989E-01
 -18.110  0.913E-01  0.913E-01
 -18.100  0.849E-01  0.849E-01
 -18.090  0.806E-01  0.806E-01
 -18.080  0.788E-01  0.788E-01
 -18.070  0.799E-01  0.799E-01
 -18.060  0.836E-01  0.836E-01
 -18.050  0.895E-01  0.895E-01
 -18.040  0.968E-01  0.968E-01
 -18.030  0.105E+00  0.105E+00
 -18.020  0.112E+00  0.112E+00
 -18.010  0.118E+00  0.118E+00
 -18.000  0.121E+00  0.121E+00
 -17.990  0.123E+00  0.123E+00
 -17.980  0.122E+00  0.122E+00
 -17.970  0.120E+00  0.120E+00
 -17.960  0.115E+00  0.115E+00
 -17.950  0.110E+00  0.110E+00
 -17.940  0.104E+00  0.104E+00
 -17.930  0.977E-01  0.977E-01
 -17.920  0.917E-01  0.917E-01
 -17.910  0.862E-01  0.862E-01
 -17.900  0.817E-01  0.817E-01
 -17.890  0.785E-01  0.785E-01
 -17.880  0.771E-01  0.771E-01
 -17.870  0.779E-01  0.779E-01
 -17.860  0.812E-01  0.812E-01
 -17.850  0.869E-01  0.869E-01
 -17.840  0.946E-01  0.946E-01
 -17.830  0.103E+00  0.103E+00
 -17.820  0.112E+00  0.112E+00
 -17.810  0.120E+00  0.120E+00
 -17.800  0.125E+00  0.125E+00
 -17.790  0.126E+00  0.126E+00
 -17.780  0.125E+00  0.125E+00
 -17.770  0.120E+00  0.120E+00
 -17.760  0.114E+00  0.114E+00
 -17.750  0.106E+00  0.106E+00
 -17.740  0.984E-01  0.984E-01
 -17.730  0.918E-01  0.918E-01
 -17.720  0.865E-01  0.865E-01
 -17.710  0.828E-01  0.828E-01
 -17.700  0.805E-01  0.805E-01
 -17.690  0.794E-01  0.794E-01
 -17.680  0.792E-01  0.792E-01
 -17.670  0.799E-01  0.799E-01
 -17.660  0.816E-01  0.816E-01
 -17.650  0.844E-01  0.844E-01
 -17.640  0.885E-01  0.885E-01
 -17.630  0.941E-01  0.941E-01
 -17.620  0.101E+00  0.101E+00
 -17.610  0.108E+00  0.108E+00
 -17.600  0.116E+00  0.116E+00
 -17.590  0.122E+00  0.122E+00
 -17.580  0.125E+00  0.125E+00
 -17.570  0.126E+00  0.126E+00
 -17.560  0.123E+00  0.123E+00
 -17.550  0.117E+00  0.117E+00
 -17.540  0.109E+00  0.109E+00
 -17.530  0.996E-01  0.996E-01
 -17.520  0.907E-01  0.907E-01
 -17.510  0.830E-01  0.830E-01
 -17.500  0.773E-01  0.773E-01
 -17.490  0.738E-01  0.738E-01
 -17.480  0.726E-01  0.726E-01
 -17.470  0.734E-01  0.734E-01
 -17.460  0.759E-01  0.759E-01
 -17.450  0.797E-01  0.797E-01
 -17.440  0.844E-01  0.844E-01
 -17.430  0.897E-01  0.897E-01
 -17.420  0.953E-01  0.953E-01
 -17.410  0.101E+00  0.101E+00
 -17.400  0.106E+00  0.106E+00
 -17.390  0.111E+00  0.111E+00
 -17.380  0.115E+00  0.115E+00
 -17.370  0.117E+00  0.117E+00
 -17.360  0.119E+00  0.119E+00
 -17.350  0.119E+00  0.119E+00
 -17.340  0.117E+00  0.117E+00
 -17.330  0.113E+00  0.113E+00
 -17.320  0.108E+00  0.108E+00
 -17.310  0.101E+00  0.101E+00
 -17.300  0.939E-01  0.939E-01
 -17.290  0.864E-01  0.864E-01
 -17.280  0.795E-01  0.795E-01
 -17.270  0.739E-01  0.739E-01
 -17.260  0.700E-01  0.700E-01
 -17.250  0.682E-01  0.682E-01
 -17.240  0.687E-01  0.687E-01
 -17.230  0.714E-01  0.714E-01
 -17.220  0.764E-01  0.764E-01
 -17.210  0.831E-01  0.831E-01
 -17.200  0.911E-01  0.911E-01
 -17.190  0.996E-01  0.996E-01
 -17.180  0.108E+00  0.108E+00
 -17.170  0.114E+00  0.114E+00
 -17.160  0.119E+00  0.119E+00
 -17.150  0.121E+00  0.121E+00
 -17.140  0.120E+00  0.120E+00
 -17.130  0.117E+00  0.117E+00
 -17.120  0.113E+00  0.113E+00
 -17.110  0.107E+00  0.107E+00
 -17.100  0.102E+00  0.102E+00
 -17.090  0.971E-01  0.971E-01
 -17.080  0.929E-01  0.929E-01
 -17.070  0.892E-01  0.892E-01
 -17.060  0.858E-01  0.858E-01
 -17.050  0.824E-01  0.824E-01
 -17.040  0.790E-01  0.790E-01
 -17.030  0.757E-01  0.757E-01
 -17.020  0.728E-01  0.728E-01
 -17.010  0.709E-01  0.709E-01
 -17.000  0.705E-01  0.705E-01
 -16.990  0.722E-01  0.722E-01
 -16.980  0.760E-01  0.760E-01
 -16.970  0.821E-01  0.821E-01
 -16.960  0.900E-01  0.900E-01
 -16.950  0.991E-01  0.991E-01
 -16.940  0.108E+00  0.108E+00
 -16.930  0.117E+00  0.117E+00
 -16.920  0.123E+00  0.123E+00
 -16.910  0.126E+00  0.126E+00
 -16.900  0.126E+00  0.126E+00
 -16.890  0.122E+00  0.122E+00
 -16.880  0.115E+00  0.115E+00
 -16.870  0.106E+00  0.106E+00
 -16.860  0.969E-01  0.969E-01
 -16.850  0.885E-01  0.885E-01
 -16.840  0.819E-01  0.819E-01
 -16.830  0.775E-01  0.775E-01
 -16.820  0.753E-01  0.753E-01
 -16.810  0.748E-01  0.748E-01
 -16.800  0.753E-01  0.753E-01
 -16.790  0.760E-01  0.760E-01
 -16.780  0.766E-01  0.766E-01
 -16.770  0.770E-01  0.770E-01
 -16.760  0.775E-01  0.775E-01
 -16.750  0.785E-01  0.785E-01
 -16.740  0.804E-01  0.804E-01
 -16.730  0.837E-01  0.837E-01
 -16.720  0.885E-01  0.885E-01
 -16.710  0.946E-01  0.946E-01
 -16.700  0.101E+00  0.101E+00
 -16.690  0.108E+00  0.108E+00
 -16.680  0.115E+00  0.115E+00
 -16.670  0.119E+00  0.119E+00
 -16.660  0.122E+00  0.122E+00
 -16.650  0.122E+00  0.122E+00
 -16.640  0.120E+00  0.120E+00
 -16.630  0.115E+00  0.115E+00
 -16.620  0.107E+00  0.107E+00
 -16.610  0.985E-01  0.985E-01
 -16.600  0.893E-01  0.893E-01
 -16.590  0.807E-01  0.807E-01
 -16.580  0.736E-01  0.736E-01
 -16.570  0.686E-01  0.686E-01
 -16.560  0.660E-01  0.660E-01
 -16.550  0.658E-01  0.658E-01
 -16.540  0.675E-01  0.675E-01
 -16.530  0.706E-01  0.706E-01
 -16.520  0.745E-01  0.745E-01
 -16.510  0.789E-01  0.789E-01
 -16.500  0.833E-01  0.833E-01
 -16.490  0.878E-01  0.878E-01
 -16.480  0.925E-01  0.925E-01
 -16.470  0.972E-01  0.972E-01
 -16.460  0.102E+00  0.102E+00
 -16.450  0.107E+00  0.107E+00
 -16.440  0.110E+00  0.110E+00
 -16.430  0.113E+00  0.113E+00
 -16.420  0.115E+00  0.115E+00
 -16.410  0.114E+00  0.114E+00
 -16.400  0.113E+00  0.113E+00
 -16.390  0.110E+00  0.110E+00
 -16.380  0.107E+00  0.107E+00
 -16.370  0.104E+00  0.104E+00
 -16.360  0.995E-01  0.995E-01
 -16.350  0.950E-01  0.950E-01
 -16.340  0.899E-01  0.899E-01
 -16.330  0.843E-01  0.843E-01
 -16.320  0.783E-01  0.783E-01
 -16.310  0.726E-01  0.726E-01
 -16.300  0.677E-01  0.677E-01
 -16.290  0.644E-01  0.644E-01
 -16.280  0.631E-01  0.631E-01
 -16.270  0.643E-01  0.643E-01
 -16.260  0.678E-01  0.678E-01
 -16.250  0.734E-01  0.734E-01
 -16.240  0.806E-01  0.806E-01
 -16.230  0.887E-01  0.887E-01
 -16.220  0.970E-01  0.970E-01
 -16.210  0.105E+00  0.105E+00
 -16.200  0.112E+00  0.112E+00
 -16.190  0.117E+00  0.117E+00
 -16.180  0.120E+00  0.120E+00
 -16.170  0.121E+00  0.121E+00
 -16.160  0.119E+00  0.119E+00
 -16.150  0.116E+00  0.116E+00
 -16.140  0.110E+00  0.110E+00
 -16.130  0.104E+00  0.104E+00
 -16.120  0.979E-01  0.979E-01
 -16.110  0.925E-01  0.925E-01
 -16.100  0.884E-01  0.884E-01
 -16.090  0.859E-01  0.859E-01
 -16.080  0.846E-01  0.846E-01
 -16.070  0.838E-01  0.838E-01
 -16.060  0.829E-01  0.829E-01
 -16.050  0.813E-01  0.813E-01
 -16.040  0.787E-01  0.787E-01
 -16.030  0.753E-01  0.753E-01
 -16.020  0.717E-01  0.717E-01
 -16.010  0.689E-01  0.689E-01
 -16.000  0.677E-01  0.677E-01
 -15.990  0.690E-01  0.690E-01
 -15.980  0.730E-01  0.730E-01
 -15.970  0.798E-01  0.798E-01
 -15.960  0.887E-01  0.887E-01
 -15.950  0.987E-01  0.987E-01
 -15.940  0.109E+00  0.109E+00
 -15.930  0.118E+00  0.118E+00
 -15.920  0.124E+00  0.124E+00
 -15.910  0.128E+00  0.128E+00
 -15.900  0.128E+00  0.128E+00
 -15.890  0.125E+00  0.125E+00
 -15.880  0.119E+00  0.119E+00
 -15.870  0.112E+00  0.112E+00
 -15.860  0.104E+00  0.104E+00
 -15.850  0.955E-01  0.955E-01
 -15.840  0.880E-01  0.880E-01
 -15.830  0.820E-01  0.820E-01
 -15.820  0.780E-01  0.780E-01
 -15.810  0.761E-01  0.761E-01
 -15.800  0.760E-01  0.760E-01
 -15.790  0.772E-01  0.772E-01
 -15.780  0.790E-01  0.790E-01
 -15.770  0.806E-01  0.806E-01
 -15.760  0.813E-01  0.813E-01
 -15.750  0.811E-01  0.811E-01
 -15.740  0.800E-01  0.800E-01
 -15.730  0.788E-01  0.788E-01
 -15.720  0.784E-01  0.784E-01
 -15.710  0.797E-01  0.797E-01
 -15.700  0.833E-01  0.833E-01
 -15.690  0.894E-01  0.894E-01
 -15.680  0.975E-01  0.975E-01
 -15.670  0.107E+00  0.107E+00
 -15.660  0.116E+00  0.116E+00
 -15.650  0.124E+00  0.124E+00
 -15.640  0.129E+00  0.129E+00
 -15.630  0.131E+00  0.131E+00
 -15.620  0.129E+00  0.129E+00
 -15.610  0.125E+00  0.125E+00
 -15.600  0.118E+00  0.118E+00
 -15.590  0.110E+00  0.110E+00
 -15.580  0.102E+00  0.102E+00
 -15.570  0.940E-01  0.940E-01
 -15.560  0.871E-01  0.871E-01
 -15.550  0.816E-01  0.816E-01
 -15.540  0.777E-01  0.777E-01
 -15.530  0.757E-01  0.757E-01
 -15.520  0.754E-01  0.754E-01
 -15.510  0.766E-01  0.766E-01
 -15.500  0.789E-01  0.789E-01
 -15.490  0.816E-01  0.816E-01
 -15.480  0.843E-01  0.843E-01
 -15.470  0.864E-01  0.864E-01
 -15.460  0.880E-01  0.880E-01
 -15.450  0.892E-01  0.892E-01
 -15.440  0.908E-01  0.908E-01
 -15.430  0.934E-01  0.934E-01
 -15.420  0.975E-01  0.975E-01
 -15.410  0.103E+00  0.103E+00
 -15.400  0.111E+00  0.111E+00
 -15.390  0.119E+00  0.119E+00
 -15.380  0.126E+00  0.126E+00
 -15.370  0.132E+00  0.132E+00
 -15.360  0.136E+00  0.136E+00
 -15.350  0.136E+00  0.136E+00
 -15.340  0.133E+00  0.133E+00
 -15.330  0.128E+00  0.128E+00
 -15.320  0.121E+00  0.121E+00
 -15.310  0.113E+00  0.113E+00
 -15.300  0.105E+00  0.105E+00
 -15.290  0.991E-01  0.991E-01
 -15.280  0.943E-01  0.943E-01
 -15.270  0.911E-01  0.911E-01
 -15.260  0.894E-01  0.894E-01
 -15.250  0.891E-01  0.891E-01
 -15.240  0.898E-01  0.898E-01
 -15.230  0.912E-01  0.912E-01
 -15.220  0.929E-01  0.929E-01
 -15.210  0.948E-01  0.948E-01
 -15.200  0.967E-01  0.967E-01
 -15.190  0.987E-01  0.987E-01
 -15.180  0.101E+00  0.101E+00
 -15.170  0.105E+00  0.105E+00
 -15.160  0.111E+00  0.111E+00
 -15.150  0.118E+00  0.118E+00
 -15.140  0.127E+00  0.127E+00
 -15.130  0.138E+00  0.138E+00
 -15.120  0.149E+00  0.149E+00
 -15.110  0.159E+00  0.159E+00
 -15.100  0.167E+00  0.167E+00
 -15.090  0.173E+00  0.173E+00
 -15.080  0.176E+00  0.176E+00
 -15.070  0.176E+00  0.176E+00
 -15.060  0.174E+00  0.174E+00
 -15.050  0.171E+00  0.171E+00
 -15.040  0.166E+00  0.166E+00
 -15.030  0.160E+00  0.160E+00
 -15.020  0.154E+00  0.154E+00
 -15.010  0.146E+00  0.146E+00
 -15.000  0.138E+00  0.138E+00
 -14.990  0.130E+00  0.130E+00
 -14.980  0.121E+00  0.121E+00
 -14.970  0.112E+00  0.112E+00
 -14.960  0.104E+00  0.104E+00
 -14.950  0.962E-01  0.962E-01
 -14.940  0.894E-01  0.894E-01
 -14.930  0.841E-01  0.841E-01
 -14.920  0.808E-01  0.808E-01
 -14.910  0.798E-01  0.798E-01
 -14.900  0.813E-01  0.813E-01
 -14.890  0.852E-01  0.852E-01
 -14.880  0.910E-01  0.910E-01
 -14.870  0.978E-01  0.978E-01
 -14.860  0.105E+00  0.105E+00
 -14.850  0.110E+00  0.110E+00
 -14.840  0.114E+00  0.114E+00
 -14.830  0.115E+00  0.115E+00
 -14.820  0.113E+00  0.113E+00
 -14.810  0.109E+00  0.109E+00
 -14.800  0.104E+00  0.104E+00
 -14.790  0.985E-01  0.985E-01
 -14.780  0.937E-01  0.937E-01
 -14.770  0.900E-01  0.900E-01
 -14.760  0.874E-01  0.874E-01
 -14.750  0.856E-01  0.856E-01
 -14.740  0.839E-01  0.839E-01
 -14.730  0.814E-01  0.814E-01
 -14.720  0.772E-01  0.772E-01
 -14.710  0.709E-01  0.709E-01
 -14.700  0.625E-01  0.625E-01
 -14.690  0.525E-01  0.525E-01
 -14.680  0.418E-01  0.418E-01
 -14.670  0.317E-01  0.317E-01
 -14.660  0.235E-01  0.235E-01
 -14.650  0.183E-01  0.183E-01
 -14.640  0.170E-01  0.170E-01
 -14.630  0.202E-01  0.202E-01
 -14.620  0.276E-01  0.276E-01
 -14.610  0.390E-01  0.390E-01
 -14.600  0.536E-01  0.536E-01
 -14.590  0.701E-01  0.701E-01
 -14.580  0.871E-01  0.871E-01
 -14.570  0.103E+00  0.103E+00
 -14.560  0.116E+00  0.116E+00
 -14.550  0.124E+00  0.124E+00
 -14.540  0.126E+00  0.126E+00
 -14.530  0.121E+00  0.121E+00
 -14.520  0.111E+00  0.111E+00
 -14.510  0.951E-01  0.951E-01
 -14.500  0.761E-01  0.761E-01
 -14.490  0.562E-01  0.562E-01
 -14.480  0.374E-01  0.374E-01
 -14.470  0.216E-01  0.216E-01
 -14.460  0.988E-02  0.988E-02
 -14.450  0.259E-02  0.259E-02
 -14.440 -0.553E-03 -0.553E-03
 -14.430 -0.284E-03 -0.284E-03
 -14.420  0.251E-02  0.251E-02
 -14.410  0.703E-02  0.703E-02
 -14.400  0.127E-01  0.127E-01
 -14.390  0.193E-01  0.193E-01
 -14.380  0.267E-01  0.267E-01
 -14.370  0.351E-01  0.351E-01
 -14.360  0.443E-01  0.443E-01
 -14.350  0.542E-01  0.542E-01
 -14.340  0.644E-01  0.644E-01
 -14.330  0.740E-01  0.740E-01
 -14.320  0.822E-01  0.822E-01
 -14.310  0.877E-01  0.877E-01
 -14.300  0.898E-01  0.898E-01
 -14.290  0.878E-01  0.878E-01
 -14.280  0.817E-01  0.817E-01
 -14.270  0.720E-01  0.720E-01
 -14.260  0.598E-01  0.598E-01
 -14.250  0.464E-01  0.464E-01
 -14.240  0.334E-01  0.334E-01
 -14.230  0.220E-01  0.220E-01
 -14.220  0.131E-01  0.131E-01
 -14.210  0.706E-02  0.706E-02
 -14.200  0.381E-02  0.381E-02
 -14.190  0.298E-02  0.298E-02
 -14.180  0.405E-02  0.405E-02
 -14.170  0.650E-02  0.650E-02
 -14.160  0.993E-02  0.993E-02
 -14.150  0.140E-01  0.140E-01
 -14.140  0.186E-01  0.186E-01
 -14.130  0.235E-01  0.235E-01
 -14.120  0.286E-01  0.286E-01
 -14.110  0.337E-01  0.337E-01
 -14.100  0.387E-01  0.387E-01
 -14.090  0.433E-01  0.433E-01
 -14.080  0.474E-01  0.474E-01
 -14.070  0.507E-01  0.507E-01
 -14.060  0.529E-01  0.529E-01
 -14.050  0.537E-01  0.537E-01
 -14.040  0.528E-01  0.528E-01
 -14.030  0.502E-01  0.502E-01
 -14.020  0.459E-01  0.459E-01
 -14.010  0.402E-01  0.402E-01
 -14.000  0.337E-01  0.337E-01
 -13.990  0.272E-01  0.272E-01
 -13.980  0.212E-01  0.212E-01
 -13.970  0.163E-01  0.163E-01
 -13.960  0.130E-01  0.130E-01
 -13.950  0.114E-01  0.114E-01
